File: src/data/kinetics/singlepeaks/q-10.txt
#EXPORTTYPE:DATA SINGLE
#FORMAT:NETZSCH5
#FTYPE:ANSI
#IDENTITY:001924
#DECIMAL:POINT
#SEPARATOR:SEMICOLON
#DATE/TIME:13.12.2016 15:32
#CORR. FILE:001923_bline_Al_250_16_N2_20.ngb-bd3
#TEMPCAL:TCALZERO.TMX
#SENSITIVITY:SENSZERO.EXX
#SAMPLE MASS /mg:8.19
#MATERIAL:íåò
#REFERENCE:
#REFERENCE MASS /mg:0
#TYPE OF CRUCIBLE:Pan Al, closed
#SAMPLE CRUCIBLE MASS /mg:0
#REFERENCE CRUCIBLE MASS /mg:0
#M.RANGE /µV:5000
#TAU-R:---
#CORR. CODE:020
#EXO:+1
#RANGE:-10°C/10,0(K/min)/270°C
#SEGMENT:S2/2
#SEG. 2:-10°C/10,0(K/min)/270°C

##Temp./°C;Time/min;DSC/(uV/mg);Sensit./(uV/mW)
 66.71876;11.04500;    -1.01422;1.00000
 67.57207;11.13000;    -1.01190;1.00000
 68.43283;11.21500;    -1.01932;1.00000
 69.29486;11.30000;    -1.02662;1.00000
 70.15393;11.38500;    -1.02431;1.00000
 71.01123;11.47000;    -1.02245;1.00000
 71.85898;11.55500;    -1.01540;1.00000
 72.70117;11.64000;    -1.00730;1.00000
 73.54702;11.72500;    -1.00825;1.00000
 74.40015;11.81000;    -1.01608;1.00000
 75.25045;11.89500;    -1.01152;1.00000
 76.10036;11.98000;    -1.01427;1.00000
 76.95482;12.06500;    -1.01695;1.00000
 77.80499;12.15000;    -1.02080;1.00000
 78.65050;12.23500;    -1.01529;1.00000
 79.49679;12.32000;    -1.01696;1.00000
 80.34364;12.40500;    -1.00977;1.00000
 81.19043;12.49000;    -1.01838;1.00000
 82.04393;12.57500;    -1.02073;1.00000
 82.90179;12.66000;    -1.02976;1.00000
 83.75947;12.74500;    -1.03292;1.00000
 84.61253;12.83000;    -1.03031;1.00000
 85.46804;12.91500;    -1.03250;1.00000
 86.32121;13.00000;    -1.04058;1.00000
 87.17573;13.08500;    -1.03368;1.00000
 88.03209;13.17000;    -1.04718;1.00000
 88.88704;13.25500;    -1.04610;1.00000
 89.73514;13.34000;    -1.04090;1.00000
 90.58235;13.42500;    -1.04806;1.00000
 91.43169;13.51000;    -1.04395;1.00000
 92.28364;13.59500;    -1.04803;1.00000
 93.13975;13.68000;    -1.05730;1.00000
 93.99614;13.76500;    -1.06459;1.00000
 94.84836;13.85000;    -1.05466;1.00000
 95.69732;13.93500;    -1.05845;1.00000
 96.54646;14.02000;    -1.05244;1.00000
 97.39881;14.10500;    -1.05484;1.00000
 98.25681;14.19000;    -1.07034;1.00000
 99.11012;14.27500;    -1.06471;1.00000
 99.95815;14.36000;    -1.05791;1.00000
100.809;14.44500;    -1.06412;1.00000
101.664;14.53000;    -1.06934;1.00000
102.516;14.61500;    -1.05778;1.00000
103.366;14.70000;    -1.06276;1.00000
104.215;14.78500;    -1.06282;1.00000
105.057;14.87000;    -1.05604;1.00000
105.904;14.95500;    -1.04380;1.00000
106.754;15.04000;    -1.06620;1.00000
107.607;15.12500;    -1.05716;1.00000
108.456;15.21000;    -1.05923;1.00000
109.306;15.29500;    -1.06463;1.00000
110.156;15.38000;    -1.04737;1.00000
111.008;15.46500;    -1.06322;1.00000
111.863;15.55000;    -1.05780;1.00000
112.715;15.63500;    -1.06717;1.00000
113.566;15.72000;    -1.05463;1.00000
114.412;15.80500;    -1.05842;1.00000
115.264;15.89000;    -1.05762;1.00000
116.121;15.97500;    -1.06859;1.00000
116.975;16.06000;    -1.07011;1.00000
117.822;16.14500;    -1.05661;1.00000
118.666;16.23000;    -1.05968;1.00000
119.514;16.31500;    -1.05781;1.00000
120.364;16.40000;    -1.06657;1.00000
121.22;16.48500;    -1.07302;1.00000
122.074;16.57000;    -1.06794;1.00000
122.919;16.65500;    -1.06694;1.00000
123.761;16.74000;    -1.05473;1.00000
124.606;16.82500;    -1.06114;1.00000
125.457;16.91000;    -1.07061;1.00000
126.309;16.99500;    -1.07705;1.00000
127.16;17.08000;    -1.07712;1.00000
128.011;17.16500;    -1.06171;1.00000
128.863;17.25000;    -1.07704;1.00000
129.718;17.33500;    -1.08278;1.00000
130.573;17.42000;    -1.08094;1.00000
131.422;17.50500;    -1.07715;1.00000
132.269;17.59000;    -1.06762;1.00000
133.117;17.67500;    -1.08172;1.00000
133.97;17.76000;    -1.08239;1.00000
134.823;17.84500;    -1.07787;1.00000
135.672;17.93000;    -1.07699;1.00000
136.523;18.01500;    -1.07123;1.00000
137.374;18.10000;    -1.08484;1.00000
138.224;18.18500;    -1.07868;1.00000
139.073;18.27000;    -1.07328;1.00000
139.923;18.35500;    -1.07707;1.00000
140.777;18.44000;    -1.08343;1.00000
141.633;18.52500;    -1.08270;1.00000
142.485;18.61000;    -1.07852;1.00000
143.337;18.69500;    -1.07367;1.00000
144.188;18.78000;    -1.07499;1.00000
145.036;18.86500;    -1.06656;1.00000
145.882;18.95000;    -1.06395;1.00000
146.729;19.03500;    -1.06257;1.00000
147.578;19.12000;    -1.06374;1.00000
148.427;19.20500;    -1.06279;1.00000
149.275;19.29000;    -1.05727;1.00000
150.125;19.37500;    -1.05787;1.00000
150.979;19.46000;    -1.06094;1.00000
151.835;19.54500;    -1.06001;1.00000
152.687;19.63000;    -1.04762;1.00000
153.538;19.71500;    -1.04576;1.00000
154.392;19.80000;    -1.04347;1.00000
155.244;19.88500;    -1.03792;1.00000
156.093;19.97000;    -1.02513;1.00000
156.943;20.05500;    -1.02243;1.00000
157.795;20.14000;    -1.01281;1.00000
158.647;20.22500;    -1.01138;1.00000
159.498;20.31000;    -0.99845;1.00000
160.351;20.39500;    -0.99063;1.00000
161.202;20.48000;    -0.98186;1.00000
162.051;20.56500;    -0.96417;1.00000
162.897;20.65000;    -0.94862;1.00000
163.746;20.73500;    -0.93569;1.00000
164.599;20.82000;    -0.92457;1.00000
165.449;20.90500;    -0.90666;1.00000
166.296;20.99000;    -0.87773;1.00000
167.143;21.07500;    -0.85582;1.00000
167.992;21.16000;    -0.83218;1.00000
168.842;21.24500;    -0.80714;1.00000
169.695;21.33000;    -0.77474;1.00000
170.551;21.41500;    -0.74291;1.00000
171.407;21.50000;    -0.70423;1.00000
172.261;21.58500;    -0.65533;1.00000
173.113;21.67000;    -0.60178;1.00000
173.965;21.75500;    -0.54034;1.00000
174.817;21.84000;    -0.47273;1.00000
175.664;21.92500;    -0.39081;1.00000
176.51;22.01000;    -0.30134;1.00000
177.358;22.09500;    -0.20628;1.00000
178.208;22.18000;-9.4798e-002;1.00000
179.059;22.26500; 2.9219e-002;1.00000
179.91;22.35000;     0.17159;1.00000
180.758;22.43500;     0.34041;1.00000
181.607;22.52000;     0.52276;1.00000
182.458;22.60500;     0.72510;1.00000
183.308;22.69000;     0.96230;1.00000
184.156;22.77500;     1.23154;1.00000
185.004;22.86000;     1.52921;1.00000
185.854;22.94500;     1.85818;1.00000
186.705;23.03000;     2.22957;1.00000
187.556;23.11500;     2.63838;1.00000
188.406;23.20000;     3.09157;1.00000
189.255;23.28500;     3.58902;1.00000
190.106;23.37000;     4.16547;1.00000
190.956;23.45500;     4.83886;1.00000
191.805;23.54000;     5.55745;1.00000
192.654;23.62500;     6.20019;1.00000
193.505;23.71000;     6.66012;1.00000
194.355;23.79500;     6.86512;1.00000
195.206;23.88000;     6.80862;1.00000
196.056;23.96500;     6.53054;1.00000
196.906;24.05000;     6.12123;1.00000
197.752;24.13500;     5.64419;1.00000
198.598;24.22000;     5.15656;1.00000
199.448;24.30500;     4.68121;1.00000
200.297;24.39000;     4.24406;1.00000
201.145;24.47500;     3.84789;1.00000
201.993;24.56000;     3.48677;1.00000
202.84;24.64500;     3.15440;1.00000
203.69;24.73000;     2.85767;1.00000
204.539;24.81500;     2.58000;1.00000
205.389;24.90000;     2.33338;1.00000
206.238;24.98500;     2.10786;1.00000
207.086;25.07000;     1.89902;1.00000
207.936;25.15500;     1.69944;1.00000
208.786;25.24000;     1.49560;1.00000
209.635;25.32500;     1.29684;1.00000
210.482;25.41000;     1.11902;1.00000
211.331;25.49500;     1.06720;1.00000
212.181;25.58000;     0.96926;1.00000
213.03;25.66500;     0.85815;1.00000
213.879;25.75000;     0.74458;1.00000
214.728;25.83500;     0.64036;1.00000
215.578;25.92000;     0.53761;1.00000
216.427;26.00500;     0.44551;1.00000
217.276;26.09000;     0.35771;1.00000
218.126;26.17500;     0.26749;1.00000
218.977;26.26000;     0.19051;1.00000
219.828;26.34500;     0.11492;1.00000
220.68;26.43000; 4.1885e-002;1.00000
221.531;26.51500;-2.2224e-002;1.00000
222.382;26.60000;-8.2765e-002;1.00000
223.23;26.68500;    -0.14062;1.00000
224.078;26.77000;    -0.19379;1.00000
224.926;26.85500;    -0.24709;1.00000
225.775;26.94000;    -0.29546;1.00000
226.625;27.02500;    -0.34343;1.00000
227.474;27.11000;    -0.38178;1.00000
228.325;27.19500;    -0.42565;1.00000
229.177;27.28000;    -0.46396;1.00000
230.027;27.36500;    -0.49346;1.00000
230.877;27.45000;    -0.52504;1.00000
231.727;27.53500;    -0.55133;1.00000
232.576;27.62000;    -0.57788;1.00000
233.427;27.70500;    -0.60160;1.00000
234.277;27.79000;    -0.61988;1.00000
235.127;27.87500;    -0.63644;1.00000
235.977;27.96000;    -0.65634;1.00000
236.827;28.04500;    -0.66561;1.00000
237.676;28.13000;    -0.68156;1.00000
238.526;28.21500;    -0.68740;1.00000
239.376;28.30000;    -0.69937;1.00000
240.227;28.38500;    -0.70525;1.00000
241.078;28.47000;    -0.71077;1.00000
241.929;28.55500;    -0.71657;1.00000
242.78;28.64000;    -0.72264;1.00000
243.632;28.72500;    -0.72152;1.00000
244.481;28.81000;    -0.72314;1.00000
245.332;28.89500;    -0.72189;1.00000
246.183;28.98000;    -0.72529;1.00000
247.034;29.06500;    -0.72643;1.00000
247.884;29.15000;    -0.72179;1.00000
248.733;29.23500;    -0.72120;1.00000
249.583;29.32000;    -0.71960;1.00000
250.433;29.40500;    -0.71583;1.00000
251.286;29.49000;    -0.71779;1.00000
251.457;29.50700;    -0.71574;1.00000