File: src/data/kinetics/singlepeaks/q-16.txt
#EXPORTTYPE:DATA SINGLE
#FORMAT:NETZSCH5
#FTYPE:ANSI
#IDENTITY:001922
#DECIMAL:POINT
#SEPARATOR:SEMICOLON
#TEMPCAL:TCALZERO.TMX
#SENSITIVITY:SENSZERO.EXX
#SAMPLE:bline
#SAMPLE MASS /mg:6.17
#MATERIAL:íåò
#REFERENCE:
#REFERENCE MASS /mg:0
#TYPE OF CRUCIBLE:Pan Al, closed
#SAMPLE CRUCIBLE MASS /mg:0
#REFERENCE CRUCIBLE MASS /mg:0
#M.RANGE /µV:5000
#TAU-R:---
#CORR. CODE:020
#EXO:+1
#RANGE:-10°C/16,0(K/min)/250°C
#SEGMENT:S2/2
#SEG. 2:-10°C/16,0(K/min)/250°C

##Temp./°C;Time/min;DSC/(uV/mg);Sensit./(uV/mW)
 58.51510;11.00800;    -1.63808;1.00000
 59.39698;11.06300;    -1.64350;1.00000
 60.27855;11.11800;    -1.64596;1.00000
 61.15998;11.17300;    -1.64265;1.00000
 62.04464;11.22800;    -1.64732;1.00000
 62.92853;11.28300;    -1.64851;1.00000
 63.81149;11.33800;    -1.64800;1.00000
 64.69464;11.39300;    -1.65334;1.00000
 65.57789;11.44800;    -1.65473;1.00000
 66.46067;11.50300;    -1.65406;1.00000
 67.34349;11.55800;    -1.65706;1.00000
 68.22647;11.61300;    -1.65809;1.00000
 69.10950;11.66800;    -1.65765;1.00000
 69.99205;11.72300;    -1.65977;1.00000
 70.87435;11.77800;    -1.66065;1.00000
 71.75727;11.83300;    -1.66214;1.00000
 72.64125;11.88800;    -1.66623;1.00000
 73.52588;11.94300;    -1.66525;1.00000
 74.41002;11.99800;    -1.66549;1.00000
 75.29226;12.05300;    -1.66526;1.00000
 76.17435;12.10800;    -1.66328;1.00000
 77.05652;12.16300;    -1.66555;1.00000
 77.93869;12.21800;    -1.66637;1.00000
 78.82059;12.27300;    -1.66418;1.00000
 79.70302;12.32800;    -1.66650;1.00000
 80.58637;12.38300;    -1.66747;1.00000
 81.47016;12.43800;    -1.66951;1.00000
 82.35281;12.49300;    -1.66674;1.00000
 83.23489;12.54800;    -1.66302;1.00000
 84.11681;12.60300;    -1.66600;1.00000
 84.99909;12.65800;    -1.66661;1.00000
 85.88194;12.71300;    -1.66958;1.00000
 86.76557;12.76800;    -1.67398;1.00000
 87.64908;12.82300;    -1.67416;1.00000
 88.53216;12.87800;    -1.67565;1.00000
 89.41453;12.93300;    -1.67567;1.00000
 90.29621;12.98800;    -1.67448;1.00000
 91.17739;13.04300;    -1.67444;1.00000
 92.05849;13.09800;    -1.67615;1.00000
 92.94076;13.15300;    -1.67714;1.00000
 93.82295;13.20800;    -1.67823;1.00000
 94.70501;13.26300;    -1.67848;1.00000
 95.58789;13.31800;    -1.67887;1.00000
 96.47070;13.37300;    -1.68132;1.00000
 97.35241;13.42800;    -1.68137;1.00000
 98.23262;13.48300;    -1.67964;1.00000
 99.11327;13.53800;    -1.68177;1.00000
 99.99468;13.59300;    -1.68469;1.00000
100.876;13.64800;    -1.68563;1.00000
101.757;13.70300;    -1.68712;1.00000
102.638;13.75800;    -1.68951;1.00000
103.519;13.81300;    -1.68852;1.00000
104.4;13.86800;    -1.69111;1.00000
105.281;13.92300;    -1.69111;1.00000
106.163;13.97800;    -1.69310;1.00000
107.045;14.03300;    -1.69617;1.00000
107.926;14.08800;    -1.69255;1.00000
108.806;14.14300;    -1.69435;1.00000
109.686;14.19800;    -1.69630;1.00000
110.568;14.25300;    -1.69996;1.00000
111.449;14.30800;    -1.69837;1.00000
112.331;14.36300;    -1.70072;1.00000
113.212;14.41800;    -1.70282;1.00000
114.093;14.47300;    -1.70210;1.00000
114.974;14.52800;    -1.70321;1.00000
115.855;14.58300;    -1.70573;1.00000
116.736;14.63800;    -1.70767;1.00000
117.617;14.69300;    -1.71117;1.00000
118.498;14.74800;    -1.70976;1.00000
119.378;14.80300;    -1.70993;1.00000
120.26;14.85800;    -1.71247;1.00000
121.141;14.91300;    -1.71387;1.00000
122.023;14.96800;    -1.71457;1.00000
122.905;15.02300;    -1.71895;1.00000
123.787;15.07800;    -1.72116;1.00000
124.668;15.13300;    -1.72138;1.00000
125.548;15.18800;    -1.72149;1.00000
126.428;15.24300;    -1.71979;1.00000
127.308;15.29800;    -1.72336;1.00000
128.19;15.35300;    -1.72362;1.00000
129.071;15.40800;    -1.72681;1.00000
129.952;15.46300;    -1.72767;1.00000
130.832;15.51800;    -1.72769;1.00000
131.712;15.57300;    -1.72841;1.00000
132.593;15.62800;    -1.73064;1.00000
133.473;15.68300;    -1.72993;1.00000
134.354;15.73800;    -1.73248;1.00000
135.234;15.79300;    -1.73267;1.00000
136.115;15.84800;    -1.73421;1.00000
136.996;15.90300;    -1.73435;1.00000
137.877;15.95800;    -1.73584;1.00000
138.758;16.01300;    -1.73345;1.00000
139.639;16.06800;    -1.73643;1.00000
140.521;16.12300;    -1.73655;1.00000
141.402;16.17800;    -1.73658;1.00000
142.283;16.23300;    -1.73570;1.00000
143.163;16.28800;    -1.73480;1.00000
144.044;16.34300;    -1.73450;1.00000
144.924;16.39800;    -1.73316;1.00000
145.804;16.45300;    -1.73254;1.00000
146.684;16.50800;    -1.73333;1.00000
147.566;16.56300;    -1.73059;1.00000
148.447;16.61800;    -1.73008;1.00000
149.327;16.67300;    -1.72687;1.00000
150.208;16.72800;    -1.72449;1.00000
151.088;16.78300;    -1.72353;1.00000
151.968;16.83800;    -1.72013;1.00000
152.848;16.89300;    -1.71615;1.00000
153.728;16.94800;    -1.71395;1.00000
154.608;17.00300;    -1.71124;1.00000
155.489;17.05800;    -1.70652;1.00000
156.37;17.11300;    -1.70183;1.00000
157.251;17.16800;    -1.69746;1.00000
158.131;17.22300;    -1.69404;1.00000
159.013;17.27800;    -1.68634;1.00000
159.894;17.33300;    -1.68072;1.00000
160.774;17.38800;    -1.67091;1.00000
161.654;17.44300;    -1.66149;1.00000
162.533;17.49800;    -1.65326;1.00000
163.413;17.55300;    -1.63991;1.00000
164.293;17.60800;    -1.63053;1.00000
165.174;17.66300;    -1.61939;1.00000
166.055;17.71800;    -1.60445;1.00000
166.935;17.77300;    -1.59006;1.00000
167.814;17.82800;    -1.56711;1.00000
168.693;17.88300;    -1.54829;1.00000
169.574;17.93800;    -1.52931;1.00000
170.455;17.99300;    -1.50688;1.00000
171.337;18.04800;    -1.47693;1.00000
172.218;18.10300;    -1.44634;1.00000
173.099;18.15800;    -1.41374;1.00000
173.981;18.21300;    -1.37245;1.00000
174.861;18.26800;    -1.32936;1.00000
175.741;18.32300;    -1.27695;1.00000
176.62;18.37800;    -1.21813;1.00000
177.499;18.43300;    -1.15308;1.00000
178.379;18.48800;    -1.08659;1.00000
179.259;18.54300;    -1.00750;1.00000
180.14;18.59800;    -0.91529;1.00000
181.02;18.65300;    -0.81425;1.00000
181.9;18.70800;    -0.69705;1.00000
182.78;18.76300;    -0.56348;1.00000
183.659;18.81800;    -0.41167;1.00000
184.539;18.87300;    -0.23969;1.00000
185.42;18.92800;-4.2695e-002;1.00000
186.301;18.98300;     0.18226;1.00000
187.182;19.03800;     0.43968;1.00000
188.062;19.09300;     0.73664;1.00000
188.943;19.14800;     1.07602;1.00000
189.823;19.20300;     1.46290;1.00000
190.704;19.25800;     1.90077;1.00000
191.584;19.31300;     2.39949;1.00000
192.465;19.36800;     2.95758;1.00000
193.346;19.42300;     3.58490;1.00000
194.227;19.47800;     4.27680;1.00000
195.108;19.53300;     5.06594;1.00000
195.989;19.58800;     5.98662;1.00000
196.87;19.64300;     7.03971;1.00000
197.751;19.69800;     8.15244;1.00000
198.633;19.75300;     9.16185;1.00000
199.514;19.80800;     9.89174;1.00000
200.394;19.86300;    10.22208;1.00000
201.274;19.91800;    10.15364;1.00000
202.154;19.97300;     9.77949;1.00000
203.034;20.02800;     9.21984;1.00000
203.914;20.08300;     8.57814;1.00000
204.794;20.13800;     7.91925;1.00000
205.675;20.19300;     7.28139;1.00000
206.555;20.24800;     6.67610;1.00000
207.436;20.30300;     6.10467;1.00000
208.315;20.35800;     5.55860;1.00000
209.194;20.41300;     5.01639;1.00000
210.073;20.46800;     4.53945;1.00000
210.952;20.52300;     4.24653;1.00000
211.833;20.57800;     3.93905;1.00000
212.714;20.63300;     3.62528;1.00000
213.594;20.68800;     3.32305;1.00000
214.473;20.74300;     3.03607;1.00000
215.352;20.79800;     2.76864;1.00000
216.232;20.85300;     2.51335;1.00000
217.113;20.90800;     2.27699;1.00000
217.993;20.96300;     2.05330;1.00000
218.873;21.01800;     1.84847;1.00000
219.753;21.07300;     1.65399;1.00000
220.633;21.12800;     1.47126;1.00000
221.513;21.18300;     1.30005;1.00000
222.392;21.23800;     1.13934;1.00000
223.272;21.29300;     0.98505;1.00000
224.153;21.34800;     0.83781;1.00000
225.033;21.40300;     0.70033;1.00000
225.914;21.45800;     0.56817;1.00000
226.794;21.51300;     0.44714;1.00000
227.674;21.56800;     0.33300;1.00000
228.553;21.62300;     0.21974;1.00000
229.434;21.67800;     0.11358;1.00000
230.314;21.73300; 1.2838e-002;1.00000
231.194;21.78800;-8.0015e-002;1.00000
232.073;21.84300;    -0.16765;1.00000
232.952;21.89800;    -0.25522;1.00000
233.833;21.95300;    -0.33646;1.00000
234.713;22.00800;    -0.41261;1.00000
235.593;22.06300;    -0.48406;1.00000
236.474;22.11800;    -0.55404;1.00000
237.355;22.17300;    -0.61258;1.00000
238.235;22.22800;    -0.67204;1.00000
239.114;22.28300;    -0.72845;1.00000
239.994;22.33800;    -0.77744;1.00000
240.875;22.39300;    -0.82567;1.00000
241.756;22.44800;    -0.86945;1.00000
242.636;22.50300;    -0.90560;1.00000
243.517;22.55800;    -0.94327;1.00000
244.397;22.61300;    -0.97519;1.00000
245.277;22.66800;    -1.00547;1.00000
246.157;22.72300;    -1.03268;1.00000
247.037;22.77800;    -1.05293;1.00000
247.917;22.83300;    -1.07092;1.00000
248.798;22.88800;    -1.08794;1.00000
249.502;22.93200;    -1.10253;1.00000