File: src/data/kinetics/singlepeaks/q-2.txt
#EXPORTTYPE:DATA SINGLE
#FORMAT:NETZSCH5
#FTYPE:ANSI
#IDENTITY:001931
#DECIMAL:POINT
#SEPARATOR:SEMICOLON
#DATE/TIME:16.12.2016 11:34
#CORR. FILE:001930_bline_Al_250_2_N2_70.ngb-bd3
#TEMPCAL:TCALZERO.TMX
#SENSITIVITY:SENSZERO.EXX
#SAMPLE MASS /mg:8.25
#MATERIAL:ïðåïðåã
#REFERENCE:
#REFERENCE MASS /mg:0
#TYPE OF CRUCIBLE:Pan Al, closed
#SAMPLE CRUCIBLE MASS /mg:0
#REFERENCE CRUCIBLE MASS /mg:0
#M.RANGE /µV:5000
#TAU-R:---
#CORR. CODE:020
#EXO:+1
#RANGE:24°C/2,0(K/min)/270°C
#SEGMENT:S1/2
#SEG. 1:24°C/2,0(K/min)/270°C

##Temp./°C;Time/min;DSC/(uV/mg);Sensit./(uV/mW)
 48.47032; 12.50000;    -0.19300;1.00000
 49.37217; 12.95000;    -0.19374;1.00000
 50.27408; 13.40000;    -0.19374;1.00000
 51.17587; 13.85000;    -0.19337;1.00000
 52.07761; 14.30000;    -0.19309;1.00000
 52.97911; 14.75000;    -0.19346;1.00000
 53.88029; 15.20000;    -0.19152;1.00000
 54.78102; 15.65000;    -0.19244;1.00000
 55.68177; 16.10000;    -0.19309;1.00000
 56.58271; 16.55000;    -0.19216;1.00000
 57.48344; 17.00000;    -0.19226;1.00000
 58.38396; 17.45000;    -0.19198;1.00000
 59.28442; 17.90000;    -0.19300;1.00000
 60.18505; 18.35000;    -0.19300;1.00000
 61.08551; 18.80000;    -0.19170;1.00000
 61.98539; 19.25000;    -0.19263;1.00000
 62.88566; 19.70000;    -0.19198;1.00000
 63.78622; 20.15000;    -0.19318;1.00000
 64.68638; 20.60000;    -0.19355;1.00000
 65.58638; 21.05000;    -0.19309;1.00000
 66.48655; 21.50000;    -0.19337;1.00000
 67.38653; 21.95000;    -0.19337;1.00000
 68.28673; 22.40000;    -0.19309;1.00000
 69.18703; 22.85000;    -0.19290;1.00000
 70.08723; 23.30000;    -0.19439;1.00000
 70.98737; 23.75000;    -0.19374;1.00000
 71.88737; 24.20000;    -0.19466;1.00000
 72.78748; 24.65000;    -0.19383;1.00000
 73.68762; 25.10000;    -0.19438;1.00000
 74.58779; 25.55000;    -0.19522;1.00000
 75.48792; 26.00000;    -0.19531;1.00000
 76.38803; 26.45000;    -0.19457;1.00000
 77.28794; 26.90000;    -0.19484;1.00000
 78.18787; 27.35000;    -0.19568;1.00000
 79.08755; 27.80000;    -0.19521;1.00000
 79.98749; 28.25000;    -0.19549;1.00000
 80.88784; 28.70000;    -0.19614;1.00000
 81.78815; 29.15000;    -0.19623;1.00000
 82.68846; 29.60000;    -0.19484;1.00000
 83.58872; 30.05000;    -0.19614;1.00000
 84.48892; 30.50000;    -0.19697;1.00000
 85.38909; 30.95000;    -0.19586;1.00000
 86.28899; 31.40000;    -0.19670;1.00000
 87.18901; 31.85000;    -0.19827;1.00000
 88.08917; 32.30000;    -0.19743;1.00000
 88.98927; 32.75000;    -0.19707;1.00000
 89.88938; 33.20000;    -0.19808;1.00000
 90.78951; 33.65000;    -0.19725;1.00000
 91.68982; 34.10000;    -0.19743;1.00000
 92.58983; 34.55000;    -0.19799;1.00000
 93.48976; 35.00000;    -0.19808;1.00000
 94.38984; 35.45000;    -0.19799;1.00000
 95.28990; 35.90000;    -0.19790;1.00000
 96.18980; 36.35000;    -0.19790;1.00000
 97.08996; 36.80000;    -0.19762;1.00000
 97.99009; 37.25000;    -0.19854;1.00000
 98.89028; 37.70000;    -0.19854;1.00000
 99.79066; 38.15000;    -0.19901;1.00000
100.691; 38.60000;    -0.19845;1.00000
101.591; 39.05000;    -0.19993;1.00000
102.491; 39.50000;    -0.19928;1.00000
103.39; 39.95000;    -0.19993;1.00000
104.29; 40.40000;    -0.19956;1.00000
105.19; 40.85000;    -0.19808;1.00000
106.091; 41.30000;    -0.19892;1.00000
106.991; 41.75000;    -0.19993;1.00000
107.891; 42.20000;    -0.19827;1.00000
108.791; 42.65000;    -0.19919;1.00000
109.691; 43.10000;    -0.19947;1.00000
110.591; 43.55000;    -0.19947;1.00000
111.491; 44.00000;    -0.19901;1.00000
112.391; 44.45000;    -0.19901;1.00000
113.291; 44.90000;    -0.19762;1.00000
114.191; 45.35000;    -0.19817;1.00000
115.091; 45.80000;    -0.19947;1.00000
115.991; 46.25000;    -0.19864;1.00000
116.891; 46.70000;    -0.19919;1.00000
117.791; 47.15000;    -0.19891;1.00000
118.691; 47.60000;    -0.19799;1.00000
119.591; 48.05000;    -0.19817;1.00000
120.491; 48.50000;    -0.19707;1.00000
121.391; 48.95000;    -0.19744;1.00000
122.291; 49.40000;    -0.19716;1.00000
123.191; 49.85000;    -0.19651;1.00000
124.091; 50.30000;    -0.19707;1.00000
124.991; 50.75000;    -0.19485;1.00000
125.891; 51.20000;    -0.19596;1.00000
126.791; 51.65000;    -0.19448;1.00000
127.691; 52.10000;    -0.19438;1.00000
128.591; 52.55000;    -0.19364;1.00000
129.491; 53.00000;    -0.19364;1.00000
130.391; 53.45000;    -0.19179;1.00000
131.291; 53.90000;    -0.19078;1.00000
132.191; 54.35000;    -0.18911;1.00000
133.091; 54.80000;    -0.18745;1.00000
133.992; 55.25000;    -0.18726;1.00000
134.891; 55.70000;    -0.18541;1.00000
135.791; 56.15000;    -0.18393;1.00000
136.691; 56.60000;    -0.18060;1.00000
137.591; 57.05000;    -0.17949;1.00000
138.491; 57.50000;    -0.17718;1.00000
139.391; 57.95000;    -0.17533;1.00000
140.291; 58.40000;    -0.17191;1.00000
141.191; 58.85000;    -0.16803;1.00000
142.091; 59.30000;    -0.16498;1.00000
142.991; 59.75000;    -0.15998;1.00000
143.891; 60.20000;    -0.15684;1.00000
144.791; 60.65000;    -0.14972;1.00000
145.691; 61.10000;    -0.14380;1.00000
146.591; 61.55000;    -0.13769;1.00000
147.491; 62.00000;    -0.13150;1.00000
148.391; 62.45000;    -0.12401;1.00000
149.291; 62.90000;    -0.11430;1.00000
150.191; 63.35000;    -0.10570;1.00000
151.091; 63.80000;-9.4692e-002;1.00000
151.991; 64.25000;-8.1837e-002;1.00000
152.891; 64.70000;-6.9356e-002;1.00000
153.791; 65.15000;-5.2985e-002;1.00000
154.691; 65.60000;-3.5878e-002;1.00000
155.591; 66.05000;-1.7011e-002;1.00000
156.491; 66.50000; 4.5366e-003;1.00000
157.391; 66.95000; 2.9505e-002;1.00000
158.291; 67.40000; 5.6786e-002;1.00000
159.192; 67.85000; 8.8228e-002;1.00000
160.092; 68.30000;     0.12374;1.00000
160.993; 68.75000;     0.16175;1.00000
161.893; 69.20000;     0.20687;1.00000
162.793; 69.65000;     0.25959;1.00000
163.694; 70.10000;     0.31868;1.00000
164.594; 70.55000;     0.38462;1.00000
165.494; 71.00000;     0.45879;1.00000
166.394; 71.45000;     0.54294;1.00000
167.295; 71.90000;     0.64198;1.00000
168.195; 72.35000;     0.75212;1.00000
169.095; 72.80000;     0.89925;1.00000
169.995; 73.25000;     1.08347;1.00000
170.895; 73.70000;     1.28396;1.00000
171.795; 74.15000;     1.46984;1.00000
172.695; 74.60000;     1.61263;1.00000
173.595; 75.05000;     1.69031;1.00000
174.495; 75.50000;     1.69058;1.00000
175.395; 75.95000;     1.62483;1.00000
176.295; 76.40000;     1.50970;1.00000
177.195; 76.85000;     1.36442;1.00000
178.095; 77.30000;     1.20850;1.00000
178.995; 77.75000;     1.05647;1.00000
179.895; 78.20000;     0.91710;1.00000
180.795; 78.65000;     0.79152;1.00000
181.695; 79.10000;     0.68055;1.00000
182.595; 79.55000;     0.58428;1.00000
183.495; 80.00000;     0.49892;1.00000
184.394; 80.45000;     0.42706;1.00000
185.295; 80.90000;     0.36178;1.00000
186.195; 81.35000;     0.30657;1.00000
187.095; 81.80000;     0.25719;1.00000
187.995; 82.25000;     0.21021;1.00000
188.895; 82.70000;     0.17127;1.00000
189.795; 83.15000;     0.13641;1.00000
190.695; 83.60000;     0.10478;1.00000
191.594; 84.05000; 7.6946e-002;1.00000
192.495; 84.50000; 5.0960e-002;1.00000
193.395; 84.95000; 2.9227e-002;1.00000
194.295; 85.40000; 6.6636e-003;1.00000
195.195; 85.85000;-1.2481e-002;1.00000
196.095; 86.30000;-2.9587e-002;1.00000
196.995; 86.75000;-4.4940e-002;1.00000
197.895; 87.20000;-5.8163e-002;1.00000
198.794; 87.65000;-7.1295e-002;1.00000
199.694; 88.10000;-8.1836e-002;1.00000
200.594; 88.55000;-9.2102e-002;1.00000
201.495; 89.00000;-9.9040e-002;1.00000
202.395; 89.45000;    -0.10616;1.00000
203.294; 89.90000;    -0.11199;1.00000
204.194; 90.35000;    -0.11716;1.00000
205.095; 90.80000;    -0.12142;1.00000
205.995; 91.25000;    -0.12577;1.00000
206.895; 91.70000;    -0.12845;1.00000
207.795; 92.15000;    -0.13400;1.00000
208.695; 92.60000;    -0.13492;1.00000
209.595; 93.05000;    -0.13686;1.00000
210.495; 93.50000;    -0.12438;1.00000
211.395; 93.95000;    -0.12364;1.00000
212.295; 94.40000;    -0.12392;1.00000
213.195; 94.85000;    -0.12234;1.00000
214.095; 95.30000;    -0.12345;1.00000
214.995; 95.75000;    -0.12188;1.00000
215.895; 96.20000;    -0.12271;1.00000
216.795; 96.65000;    -0.12123;1.00000
217.695; 97.10000;    -0.12105;1.00000
218.595; 97.55000;    -0.12049;1.00000
219.495; 98.00000;    -0.11975;1.00000
220.395; 98.45000;    -0.11966;1.00000
221.295; 98.90000;    -0.11938;1.00000
222.195; 99.35000;    -0.11827;1.00000
223.095; 99.80000;    -0.11994;1.00000
223.995;100.25;    -0.11874;1.00000
224.895;100.7;    -0.11689;1.00000
225.795;101.15;    -0.11754;1.00000
226.695;101.6;    -0.11689;1.00000
227.595;102.05;    -0.11624;1.00000
228.495;102.5;    -0.11605;1.00000
229.395;102.95;    -0.11596;1.00000
230.295;103.4;    -0.11605;1.00000
231.195;103.85;    -0.11504;1.00000
232.095;104.3;    -0.11532;1.00000
232.995;104.75;    -0.11310;1.00000
233.895;105.2;    -0.11374;1.00000
234.795;105.65;    -0.11226;1.00000
235.695;106.1;    -0.11115;1.00000
236.595;106.55;    -0.11162;1.00000
237.495;107;    -0.10903;1.00000
238.395;107.45;    -0.10940;1.00000
239.295;107.9;    -0.10829;1.00000
240.195;108.35;    -0.10662;1.00000
241.095;108.8;    -0.10598;1.00000
241.995;109.25;    -0.10496;1.00000
242.895;109.7;    -0.10450;1.00000
243.796;110.15;    -0.10301;1.00000
244.696;110.6;    -0.10144;1.00000
245.416;110.96;    -0.10033;1.00000