File: src/data/kinetics/singlepeaks/q-4.txt
#EXPORTTYPE:DATA SINGLE
#FTYPE:ANSI
#IDENTITY:001926
#DECIMAL:POINT
#SEPARATOR:SEMICOLON
#DATE/TIME:15.12.2016 08:08
#TEMPCAL:TCALZERO.TMX
#SENSITIVITY:SENSZERO.EXX
#REMARK:
#SAMPLE:ÂÊ-36
#SAMPLE MASS /mg:8.16
#MATERIAL:íåò
#REFERENCE:
#REFERENCE MASS /mg:0
#TYPE OF CRUCIBLE:Pan Al, closed
#SAMPLE CRUCIBLE MASS /mg:0
#REFERENCE CRUCIBLE MASS /mg:0
#M.RANGE /µV:5000
#TAU-R:---
#CORR. CODE:020
#EXO:+1
#RANGE:-10°C/4,0(K/min)/270°C
#SEGMENT:S2/3
#SEG. 2:-10°C/4,0(K/min)/270°C

##Temp./°C;Time/min;DSC/(uV/mg);Sensit./(uV/mW)
 31.28046;11.97300;    -0.37331;1.00000
 32.24983;12.22300;    -0.37560;1.00000
 33.22360;12.47300;    -0.37879;1.00000
 34.20196;12.72300;    -0.38243;1.00000
 35.18460;12.97300;    -0.38530;1.00000
 36.16982;13.22300;    -0.38634;1.00000
 37.15714;13.47300;    -0.38999;1.00000
 38.14696;13.72300;    -0.39026;1.00000
 39.13897;13.97300;    -0.39277;1.00000
 40.13246;14.22300;    -0.39456;1.00000
 41.12729;14.47300;    -0.39663;1.00000
 42.12348;14.72300;    -0.39777;1.00000
 43.12090;14.97300;    -0.39952;1.00000
 44.11904;15.22300;    -0.39902;1.00000
 45.11759;15.47300;    -0.40094;1.00000
 46.11670;15.72300;    -0.40163;1.00000
 47.11604;15.97300;    -0.40301;1.00000
 48.11579;16.22300;    -0.40445;1.00000
 49.11630;16.47300;    -0.40454;1.00000
 50.11675;16.72300;    -0.40511;1.00000
 51.11714;16.97300;    -0.40540;1.00000
 52.11781;17.22300;    -0.40612;1.00000
 53.11847;17.47300;    -0.40568;1.00000
 54.11930;17.72300;    -0.40654;1.00000
 55.12014;17.97300;    -0.40604;1.00000
 56.12110;18.22300;    -0.40782;1.00000
 57.12210;18.47300;    -0.40755;1.00000
 58.12302;18.72300;    -0.40757;1.00000
 59.12381;18.97300;    -0.40723;1.00000
 60.12434;19.22300;    -0.40875;1.00000
 61.12524;19.47300;    -0.40791;1.00000
 62.12637;19.72300;    -0.40936;1.00000
 63.12716;19.97300;    -0.40991;1.00000
 64.12757;20.22300;    -0.40980;1.00000
 65.12859;20.47300;    -0.41026;1.00000
 66.12957;20.72300;    -0.41072;1.00000
 67.13028;20.97300;    -0.41093;1.00000
 68.13110;21.22300;    -0.41122;1.00000
 69.13145;21.47300;    -0.41123;1.00000
 70.13159;21.72300;    -0.41233;1.00000
 71.13210;21.97300;    -0.41259;1.00000
 72.13233;22.22300;    -0.41325;1.00000
 73.13232;22.47300;    -0.41243;1.00000
 74.13271;22.72300;    -0.41390;1.00000
 75.13310;22.97300;    -0.41449;1.00000
 76.13304;23.22300;    -0.41513;1.00000
 77.13351;23.47300;    -0.41486;1.00000
 78.13396;23.72300;    -0.41800;1.00000
 79.13439;23.97300;    -0.41680;1.00000
 80.13492;24.22300;    -0.41804;1.00000
 81.13518;24.47300;    -0.41817;1.00000
 82.13512;24.72300;    -0.41748;1.00000
 83.13557;24.97300;    -0.41832;1.00000
 84.13624;25.22300;    -0.41906;1.00000
 85.13641;25.47300;    -0.42047;1.00000
 86.13688;25.72300;    -0.41973;1.00000
 87.13729;25.97300;    -0.42018;1.00000
 88.13755;26.22300;    -0.42008;1.00000
 89.13781;26.47300;    -0.42168;1.00000
 90.13800;26.72300;    -0.42046;1.00000
 91.13806;26.97300;    -0.42125;1.00000
 92.13806;27.22300;    -0.42241;1.00000
 93.13836;27.47300;    -0.42299;1.00000
 94.13871;27.72300;    -0.42320;1.00000
 95.13882;27.97300;    -0.42334;1.00000
 96.13906;28.22300;    -0.42466;1.00000
 97.13920;28.47300;    -0.42442;1.00000
 98.13912;28.72300;    -0.42512;1.00000
 99.13914;28.97300;    -0.42524;1.00000
100.139;29.22300;    -0.42676;1.00000
101.139;29.47300;    -0.42732;1.00000
102.14;29.72300;    -0.42720;1.00000
103.139;29.97300;    -0.42810;1.00000
104.14;30.22300;    -0.42772;1.00000
105.14;30.47300;    -0.42821;1.00000
106.14;30.72300;    -0.42830;1.00000
107.14;30.97300;    -0.42765;1.00000
108.14;31.22300;    -0.42831;1.00000
109.14;31.47300;    -0.42974;1.00000
110.14;31.72300;    -0.43031;1.00000
111.14;31.97300;    -0.42971;1.00000
112.141;32.22300;    -0.43086;1.00000
113.14;32.47300;    -0.42982;1.00000
114.14;32.72300;    -0.43096;1.00000
115.141;32.97300;    -0.42992;1.00000
116.141;33.22300;    -0.42972;1.00000
117.141;33.47300;    -0.43142;1.00000
118.141;33.72300;    -0.43168;1.00000
119.141;33.97300;    -0.43056;1.00000
120.142;34.22300;    -0.43132;1.00000
121.142;34.47300;    -0.43131;1.00000
122.141;34.72300;    -0.43158;1.00000
123.141;34.97300;    -0.43030;1.00000
124.141;35.22300;    -0.43093;1.00000
125.142;35.47300;    -0.43017;1.00000
126.142;35.72300;    -0.42902;1.00000
127.141;35.97300;    -0.42888;1.00000
128.141;36.22300;    -0.42866;1.00000
129.141;36.47300;    -0.42756;1.00000
130.141;36.72300;    -0.42749;1.00000
131.142;36.97300;    -0.42482;1.00000
132.141;37.22300;    -0.42514;1.00000
133.141;37.47300;    -0.42430;1.00000
134.142;37.72300;    -0.42316;1.00000
135.142;37.97300;    -0.42224;1.00000
136.142;38.22300;    -0.42019;1.00000
137.142;38.47300;    -0.41935;1.00000
138.142;38.72300;    -0.41696;1.00000
139.142;38.97300;    -0.41423;1.00000
140.142;39.22300;    -0.41269;1.00000
141.142;39.47300;    -0.41149;1.00000
142.142;39.72300;    -0.40893;1.00000
143.142;39.97300;    -0.40501;1.00000
144.142;40.22300;    -0.40148;1.00000
145.141;40.47300;    -0.39690;1.00000
146.142;40.72300;    -0.39500;1.00000
147.142;40.97300;    -0.38811;1.00000
148.142;41.22300;    -0.38335;1.00000
149.142;41.47300;    -0.37470;1.00000
150.141;41.72300;    -0.36921;1.00000
151.142;41.97300;    -0.36202;1.00000
152.142;42.22300;    -0.35320;1.00000
153.143;42.47300;    -0.34362;1.00000
154.143;42.72300;    -0.33202;1.00000
155.143;42.97300;    -0.32077;1.00000
156.143;43.22300;    -0.30747;1.00000
157.143;43.47300;    -0.29173;1.00000
158.143;43.72300;    -0.27274;1.00000
159.143;43.97300;    -0.25255;1.00000
160.143;44.22300;    -0.23078;1.00000
161.143;44.47300;    -0.20350;1.00000
162.143;44.72300;    -0.17266;1.00000
163.144;44.97300;    -0.13892;1.00000
164.144;45.22300;-9.9716e-002;1.00000
165.145;45.47300;-5.4836e-002;1.00000
166.145;45.72300;-3.6294e-003;1.00000
167.145;45.97300; 5.7446e-002;1.00000
168.145;46.22300;     0.12390;1.00000
169.146;46.47300;     0.20411;1.00000
170.145;46.72300;     0.29421;1.00000
171.145;46.97300;     0.39902;1.00000
172.145;47.22300;     0.52046;1.00000
173.146;47.47300;     0.66157;1.00000
174.146;47.72300;     0.82340;1.00000
175.146;47.97300;     1.00908;1.00000
176.146;48.22300;     1.21738;1.00000
177.146;48.47300;     1.45715;1.00000
178.147;48.72300;     1.76548;1.00000
179.147;48.97300;     2.15893;1.00000
180.146;49.22300;     2.57290;1.00000
181.147;49.47300;     2.92075;1.00000
182.147;49.72300;     3.12971;1.00000
183.148;49.97300;     3.17176;1.00000
184.148;50.22300;     3.05803;1.00000
185.148;50.47300;     2.83205;1.00000
186.147;50.72300;     2.54600;1.00000
187.147;50.97300;     2.24476;1.00000
188.147;51.22300;     1.96334;1.00000
189.147;51.47300;     1.70257;1.00000
190.147;51.72300;     1.47417;1.00000
191.147;51.97300;     1.27176;1.00000
192.146;52.22300;     1.09903;1.00000
193.146;52.47300;     0.94296;1.00000
194.146;52.72300;     0.80956;1.00000
195.146;52.97300;     0.69073;1.00000
196.146;53.22300;     0.58514;1.00000
197.145;53.47300;     0.49038;1.00000
198.145;53.72300;     0.40616;1.00000
199.145;53.97300;     0.33089;1.00000
200.146;54.22300;     0.26182;1.00000
201.145;54.47300;     0.20347;1.00000
202.145;54.72300;     0.14424;1.00000
203.145;54.97300; 9.3886e-002;1.00000
204.146;55.22300; 4.9736e-002;1.00000
205.146;55.47300; 6.7859e-003;1.00000
206.146;55.72300;-3.1643e-002;1.00000
207.146;55.97300;-6.8885e-002;1.00000
208.145;56.22300;    -0.10605;1.00000
209.146;56.47300;    -0.14656;1.00000
210.146;56.72300;    -0.17065;1.00000
211.147;56.97300;    -0.16193;1.00000
212.148;57.22300;    -0.17804;1.00000
213.147;57.47300;    -0.19649;1.00000
214.147;57.72300;    -0.21154;1.00000
215.147;57.97300;    -0.22482;1.00000
216.147;58.22300;    -0.23666;1.00000
217.148;58.47300;    -0.24666;1.00000
218.147;58.72300;    -0.25367;1.00000
219.147;58.97300;    -0.25920;1.00000
220.147;59.22300;    -0.26488;1.00000
221.147;59.47300;    -0.26806;1.00000
222.147;59.72300;    -0.27255;1.00000
223.147;59.97300;    -0.27235;1.00000
224.147;60.22300;    -0.27359;1.00000
225.146;60.47300;    -0.27586;1.00000
226.147;60.72300;    -0.27796;1.00000
227.147;60.97300;    -0.27686;1.00000
228.147;61.22300;    -0.27572;1.00000
229.147;61.47300;    -0.27551;1.00000
230.147;61.72300;    -0.27358;1.00000
231.147;61.97300;    -0.27387;1.00000
232.147;62.22300;    -0.27262;1.00000
233.147;62.47300;    -0.27407;1.00000
234.147;62.72300;    -0.26983;1.00000
235.147;62.97300;    -0.27275;1.00000
236.148;63.22300;    -0.27093;1.00000
237.148;63.47300;    -0.26794;1.00000
238.147;63.72300;    -0.26694;1.00000
239.147;63.97300;    -0.26655;1.00000
240.147;64.22300;    -0.26478;1.00000
241.148;64.47300;    -0.26339;1.00000
242.148;64.72300;    -0.26013;1.00000