File: src/data/kinetics/q20/peak_3.txt
#EXPORTTYPE:DATA SINGLE
#FTYPE:ANSI
#IDENTITY:005924
#DECIMAL:POINT
#SEPARATOR:SEMICOLON
#MTYPE:DSC
#PROJECT:
#DATE/TIME:22.07.2025 13:59
#CORR. FILE:005923_bline_Al2O3_900_20_N2_20_air_20.ngb-bs1
#TEMPCAL:TCALZERO.TCX
#SENSITIVITY:SENSZERO.EXX
#LABORATORY:13
#REMARK:
#SAMPLE:3
#SAMPLE MASS /mg:11.02
#REFERENCE:
#REFERENCE MASS /mg:0
#TYPE OF CRUCIBLE:DSC/TG pan Al2O3
#SAMPLE CRUCIBLE MASS /mg:0
#REFERENCE CRUCIBLE MASS /mg:0
#DSC RANGE /�V:5000
#TG RANGE /mg:5000
#TAU-R:---
#CORR. CODE:020
#EXO:+1
#RANGE:35�C/00:00/35�C/20,0(K/min)/920�C/
#SEGMENT:S2/2
#SEG. 1:35�C/00:15/35�C
#SEG. 2:35�C/20,0(K/min)/920�C

##Temp./�C;Time/min;DSC/(uV/mg);Sensit./(uV/mW)
34.12771;15.2525;1.90412e-43;1.0
34.24319;15.5025;1.96676e-43;1.0
34.64471;15.7525;2.20094e-43;1.0
35.4829;16.0025;2.78298e-43;1.0
36.80038;16.2525;4.02195e-43;1.0
38.58895;16.5025;6.62322e-43;1.0
40.80919;16.7525;1.22806e-42;1.0
43.38457;17.0025;2.50727e-42;1.0
46.28457;17.2525;5.58324e-42;1.0
49.45557;17.5025;1.33477e-41;1.0
52.86838;17.7525;3.39514e-41;1.0
56.49052;18.0025;9.09881e-41;1.0
60.29871;18.2525;2.55075e-40;1.0
64.26776;18.5025;7.42341e-40;1.0
68.38686;18.7525;2.23466e-39;1.0
72.62505;19.0025;6.8962e-39;1.0
76.97686;19.2525;2.17726e-38;1.0
81.44562;19.5025;7.03456e-38;1.0
86.04281;19.7525;2.33139e-37;1.0
90.75519;20.0025;7.89324e-37;1.0
95.54043;20.2525;2.69882e-36;1.0
100.409;20.5025;9.33884e-36;1.0
105.338;20.7525;3.25093e-35;1.0
110.304;21.0025;1.13132e-34;1.0
115.315;21.2525;3.94207e-34;1.0
120.365;21.5025;1.37312e-33;1.0
125.466;21.7525;4.79427e-33;1.0
130.616;22.0025;1.67658e-32;1.0
135.815;22.2525;5.87084e-32;1.0
141.059;22.5025;2.0553e-31;1.0
146.342;22.7525;7.18421e-31;1.0
151.657;23.0025;2.50198e-30;1.0
156.988;23.2525;8.64947e-30;1.0
162.33;23.5025;2.96382e-29;1.0
167.6811;23.7525;1.0064e-28;1.0
173.024;24.0025;3.37239e-28;1.0
178.4181;24.2525;1.13007e-27;1.0
183.813;24.5025;3.7444e-27;1.0
189.235;24.7525;1.23363e-26;1.0
194.669;25.0025;4.02767e-26;1.0
200.1089;25.2525;1.30151e-25;1.0
205.551;25.5025;4.1587e-25;1.0
210.995;25.7525;1.3135e-24;1.0
216.435;26.0025;4.09759e-24;1.0
221.884;26.2525;1.26582e-23;1.0
227.326;26.5025;3.85871e-23;1.0
232.769;26.7525;1.16264e-22;1.0
238.208;27.0025;3.4598e-22;1.0
243.645;27.2525;1.01735e-21;1.0
249.081;27.5025;2.95556e-21;1.0
254.513;27.7525;8.47986e-21;1.0
259.938;28.0025;2.40135e-20;1.0
265.359;28.2525;6.71636e-20;1.0
270.777;28.5025;1.85588e-19;1.0
276.19;28.7525;5.0641e-19;1.0
281.589;29.0025;1.36244e-18;1.0
286.9809;29.2525;3.61846e-18;1.0
292.374;29.5025;9.50272e-18;1.0
297.754;29.7525;2.46112e-17;1.0
303.122;30.0025;6.28848e-17;1.0
308.487;30.2525;1.58771e-16;1.0
313.8459;30.5025;3.95944e-16;1.0
319.199;30.7525;9.7519e-16;1.0
324.539;31.0025;2.36974e-15;1.0
329.881;31.2525;5.69531e-15;1.0
335.21;31.5025;1.35054e-14;1.0
340.529;31.7525;3.16199e-14;1.0
345.84;32.0025;7.31092e-14;1.0
351.143;32.2525;1.66951e-13;1.0
356.438;32.5025;3.7661e-13;1.0
361.728;32.7525;8.3945e-13;1.0
367.0099;33.0025;1.84817e-12;1.0
372.279;33.2525;4.01665e-12;1.0
377.548;33.5025;8.63458e-12;1.0
382.81;33.7525;1.83403e-11;1.0
388.065;34.0025;3.84936e-11;1.0
393.315;34.2525;7.98569e-11;1.0
398.549;34.5025;1.63499e-10;1.0
403.789;34.7525;3.31414e-10;1.0
409.015;35.0025;6.63242e-10;1.0
414.236;35.2525;1.31227e-09;1.0
419.451;35.5025;2.56672e-09;1.0
424.66;35.7525;4.96224e-09;1.0
429.864;36.0025;9.48473e-09;1.0
435.062;36.2525;1.79252e-08;1.0
440.256;36.5025;3.34956e-08;1.0
445.444;36.7525;6.18866e-08;1.0
450.626;37.0025;1.13042e-07;1.0
455.799;37.2525;2.04106e-07;1.0
460.966;37.5025;3.64381e-07;1.0
466.133;37.7525;6.43607e-07;1.0
471.29;38.0025;1.12377e-06;1.0
476.442;38.2525;1.94063e-06;1.0
481.587;38.5025;3.31356e-06;1.0
486.731;38.7525;5.59802e-06;1.0
491.871;39.0025;9.35516e-06;1.0
497.004;39.2525;1.54619e-05;1.0
502.138;39.5025;2.52902e-05;1.0
507.262;39.7525;4.08978e-05;1.0
512.391;40.0025;6.54826e-05;1.0
517.514;40.2525;0.000103708;1.0
522.643;40.5025;0.000162631;1.0
527.765;40.7525;0.000252234;1.0
532.896;41.0025;0.00038745;1.0
538.037;41.2525;0.000589431;1.0
543.189;41.5025;0.000888153;1.0
548.349;41.7525;0.00132503;1.0
553.515;42.0025;0.00195694;1.0
558.684;42.2525;0.00286055;1.0
563.854;42.5025;0.00413758;1.0
569.049;42.7525;0.00593159;1.0
574.26;43.0025;0.00842202;1.0
579.422;43.2525;0.0117926;1.0
584.76;43.5025;0.0165197;1.0
590.127;43.7525;0.0229195;1.0
595.457;44.0025;0.0313715;1.0
600.648;44.2525;0.0421325;1.0
605.784;44.5025;0.0558177;1.0
610.83;44.7525;0.0728396;1.0
615.742;45.0025;0.0934737;1.0
620.639;45.2525;0.118723;1.0
625.545;45.5025;0.149434;1.0
630.459;45.7525;0.186362;1.0
635.38;46.0025;0.230275;1.0
640.308;46.2525;0.281891;1.0
645.26;46.5025;0.342094;1.0
650.236;46.7525;0.411478;1.0
655.221;47.0025;0.490262;1.0
660.22;47.2525;0.578665;1.0
665.225;47.5025;0.67641;1.0
670.231;47.7525;0.782873;1.0
675.241;48.0025;0.897221;1.0
680.257;48.2525;1.01826;1.0
685.271;48.5025;1.14411;1.0
690.28;48.7525;1.27261;1.0
695.2828;49.0025;1.40141;1.0
700.282;49.2525;1.52792;1.0
705.281;49.5025;1.64942;1.0
710.284;49.7525;1.76311;1.0
715.28;50.0025;1.8659;1.0
720.278;50.2525;1.9553;1.0
725.282;50.5025;2.02886;1.0
730.282;50.7525;2.08436;1.0
735.28;51.0025;2.12026;1.0
740.272;51.2525;2.13554;1.0
745.26;51.5025;2.12979;1.0
750.243;51.7525;2.10325;1.0
755.23;52.0025;2.05666;1.0
760.233;52.2525;1.99114;1.0
765.25;52.5025;1.90842;1.0
770.278;52.7525;1.81077;1.0
775.306;53.0025;1.70097;1.0
780.335;53.2525;1.58188;1.0
785.353;53.5025;1.45675;1.0
790.365;53.7525;1.32832;1.0
795.363;54.0025;1.19961;1.0
800.355;54.2525;1.07282;1.0
805.337;54.5025;0.950261;1.0
810.311;54.7525;0.833648;1.0
815.273;55.0025;0.724452;1.0
820.233;55.2525;0.623487;1.0
825.19;55.5025;0.531438;1.0
830.147;55.7525;0.448592;1.0
835.104;56.0025;0.375;1.0
840.066;56.2525;0.310377;1.0
845.0319;56.5025;0.25435;1.0
849.994;56.7525;0.206446;1.0
854.957;57.0025;0.165931;1.0
859.918;57.2525;0.13208;1.0
864.877;57.5025;0.104129;1.0
869.837;57.7525;0.0812919;1.0
874.792;58.0025;0.0628643;1.0
879.749;58.2525;0.0481377;1.0
884.703;58.5025;0.0365099;1.0
889.657;58.7525;0.0274221;1.0
894.614;59.0025;0.020394;1.0