File: src/data/kinetics/q20/peak_4.txt
#EXPORTTYPE:DATA SINGLE
#FTYPE:ANSI
#IDENTITY:005924
#DECIMAL:POINT
#SEPARATOR:SEMICOLON
#MTYPE:DSC
#PROJECT:
#DATE/TIME:22.07.2025 13:59
#CORR. FILE:005923_bline_Al2O3_900_20_N2_20_air_20.ngb-bs1
#TEMPCAL:TCALZERO.TCX
#SENSITIVITY:SENSZERO.EXX
#LABORATORY:13
#REMARK:
#SAMPLE:3
#SAMPLE MASS /mg:11.02
#REFERENCE:
#REFERENCE MASS /mg:0
#TYPE OF CRUCIBLE:DSC/TG pan Al2O3
#SAMPLE CRUCIBLE MASS /mg:0
#REFERENCE CRUCIBLE MASS /mg:0
#DSC RANGE /�V:5000
#TG RANGE /mg:5000
#TAU-R:---
#CORR. CODE:020
#EXO:+1
#RANGE:35�C/00:00/35�C/20,0(K/min)/920�C/
#SEGMENT:S2/2
#SEG. 1:35�C/00:15/35�C
#SEG. 2:35�C/20,0(K/min)/920�C

##Temp./�C;Time/min;DSC/(uV/mg);Sensit./(uV/mW)
34.12771;15.2525;2.89122e-42;1.0
34.24319;15.5025;2.97019e-42;1.0
34.64471;15.7525;3.26183e-42;1.0
35.4829;16.0025;3.96563e-42;1.0
36.80038;16.2525;5.38899e-42;1.0
38.58895;16.5025;8.16555e-42;1.0
40.80919;16.7525;1.36607e-41;1.0
43.38457;17.0025;2.47711e-41;1.0
46.28457;17.2525;4.83078e-41;1.0
49.45557;17.5025;1.00002e-40;1.0
52.86838;17.7525;2.18126e-40;1.0
56.49052;18.0025;4.97288e-40;1.0
60.29871;18.2525;1.178e-39;1.0
64.26776;18.5025;2.88136e-39;1.0
68.38686;18.7525;7.25571e-39;1.0
72.62505;19.0025;1.86711e-38;1.0
76.97686;19.2525;4.90183e-38;1.0
81.44562;19.5025;1.31334e-37;1.0
86.04281;19.7525;3.59853e-37;1.0
90.75519;20.0025;1.00492e-36;1.0
95.54043;20.2525;2.8329e-36;1.0
100.409;20.5025;8.07646e-36;1.0
105.338;20.7525;2.31701e-35;1.0
110.304;21.0025;6.65361e-35;1.0
115.315;21.2525;1.91521e-34;1.0
120.365;21.5025;5.51835e-34;1.0
125.466;21.7525;1.59536e-33;1.0
130.616;22.0025;4.62479e-33;1.0
135.815;22.2525;1.34408e-32;1.0
141.059;22.5025;3.91116e-32;1.0
146.342;22.7525;1.13831e-31;1.0
151.657;23.0025;3.30759e-31;1.0
156.988;23.2525;9.56529e-31;1.0
162.33;23.5025;2.74964e-30;1.0
167.6811;23.7525;7.85531e-30;1.0
173.024;24.0025;2.22231e-29;1.0
178.4181;24.2525;6.29734e-29;1.0
183.813;24.5025;1.77019e-28;1.0
189.235;24.7525;4.95999e-28;1.0
194.669;25.0025;1.3813e-27;1.0
200.1089;25.2525;3.81923e-27;1.0
205.551;25.5025;1.04759e-26;1.0
210.995;25.7525;2.84975e-26;1.0
216.435;26.0025;7.68282e-26;1.0
221.884;26.2525;2.05738e-25;1.0
227.326;26.5025;5.45585e-25;1.0
232.769;26.7525;1.43476e-24;1.0
238.208;27.0025;3.7392e-24;1.0
243.645;27.2525;9.66136e-24;1.0
249.081;27.5025;2.47462e-23;1.0
254.513;27.7525;6.28106e-23;1.0
259.938;28.0025;1.57899e-22;1.0
265.359;28.2525;3.93374e-22;1.0
270.777;28.5025;9.71451e-22;1.0
276.19;28.7525;2.37708e-21;1.0
281.589;29.0025;5.75536e-21;1.0
286.9809;29.2525;1.38029e-20;1.0
292.374;29.5025;3.28388e-20;1.0
297.754;29.7525;7.73186e-20;1.0
303.122;30.0025;1.80219e-19;1.0
308.487;30.2525;4.16444e-19;1.0
313.8459;30.5025;9.53641e-19;1.0
319.199;30.7525;2.16394e-18;1.0
324.539;31.0025;4.86111e-18;1.0
329.881;31.2525;1.08345e-17;1.0
335.21;31.5025;2.39067e-17;1.0
340.529;31.7525;5.22547e-17;1.0
345.84;32.0025;1.13165e-16;1.0
351.143;32.2525;2.42836e-16;1.0
356.438;32.5025;5.1642e-16;1.0
361.728;32.7525;1.08864e-15;1.0
367.0099;33.0025;2.27407e-15;1.0
372.279;33.2525;4.70443e-15;1.0
377.548;33.5025;9.65637e-15;1.0
382.81;33.7525;1.96465e-14;1.0
388.065;34.0025;3.96223e-14;1.0
393.315;34.2525;7.92311e-14;1.0
398.549;34.5025;1.56861e-13;1.0
403.789;34.7525;3.08393e-13;1.0
409.015;35.0025;6.00494e-13;1.0
414.236;35.2525;1.15957e-12;1.0
419.451;35.5025;2.22037e-12;1.0
424.66;35.7525;4.21533e-12;1.0
429.864;36.0025;7.93617e-12;1.0
435.062;36.2525;1.48185e-11;1.0
440.256;36.5025;2.74409e-11;1.0
445.444;36.7525;5.03957e-11;1.0
450.626;37.0025;9.17764e-11;1.0
455.799;37.2525;1.65711e-10;1.0
460.966;37.5025;2.96722e-10;1.0
466.133;37.7525;5.27248e-10;1.0
471.29;38.0025;9.28881e-10;1.0
476.442;38.2525;1.62332e-09;1.0
481.587;38.5025;2.81331e-09;1.0
486.731;38.7525;4.8384e-09;1.0
491.871;39.0025;8.2555e-09;1.0
497.004;39.2525;1.39718e-08;1.0
502.138;39.5025;2.34704e-08;1.0
507.262;39.7525;3.90934e-08;1.0
512.391;40.0025;6.46632e-08;1.0
517.514;40.2525;1.06105e-07;1.0
522.643;40.5025;1.72906e-07;1.0
527.765;40.7525;2.7948e-07;1.0
532.896;41.0025;4.48761e-07;1.0
538.037;41.2525;7.15823e-07;1.0
543.189;41.5025;1.13441e-06;1.0
548.349;41.7525;1.78542e-06;1.0
553.515;42.0025;2.7903e-06;1.0
558.684;42.2525;4.32912e-06;1.0
563.854;42.5025;6.66618e-06;1.0
569.049;42.7525;1.02075e-05;1.0
574.26;43.0025;1.55307e-05;1.0
579.422;43.2525;2.33578e-05;1.0
584.76;43.5025;3.53426e-05;1.0
590.127;43.7525;5.3155e-05;1.0
595.457;44.0025;7.90804e-05;1.0
600.648;44.2525;0.000115539;1.0
605.784;44.5025;0.000166865;1.0
610.83;44.7525;0.000237703;1.0
615.742;45.0025;0.000333129;1.0
620.639;45.2525;0.00046319;1.0
625.545;45.5025;0.000640067;1.0
630.459;45.7525;0.000878858;1.0
635.38;46.0025;0.00119904;1.0
640.308;46.2525;0.00162529;1.0
645.26;46.5025;0.00219114;1.0
650.236;46.7525;0.00293738;1.0
655.221;47.0025;0.00391226;1.0
660.22;47.2525;0.005178;1.0
665.225;47.5025;0.00680709;1.0
670.231;47.7525;0.00888562;1.0
675.241;48.0025;0.0115186;1.0
680.257;48.2525;0.0148303;1.0
685.271;48.5025;0.0189567;1.0
690.28;48.7525;0.0240515;1.0
695.2828;49.0025;0.0302918;1.0
700.282;49.2525;0.0378744;1.0
705.281;49.5025;0.0470192;1.0
710.284;49.7525;0.0579671;1.0
715.28;50.0025;0.0709369;1.0
720.278;50.2525;0.0862055;1.0
725.282;50.5025;0.104038;1.0
730.282;50.7525;0.124652;1.0
735.28;51.0025;0.148284;1.0
740.272;51.2525;0.175118;1.0
745.26;51.5025;0.205317;1.0
750.243;51.7525;0.238993;1.0
755.23;52.0025;0.276263;1.0
760.233;52.2525;0.317235;1.0
765.25;52.5025;0.361829;1.0
770.278;52.7525;0.409855;1.0
775.306;53.0025;0.460937;1.0
780.335;53.2525;0.51468;1.0
785.353;53.5025;0.570441;1.0
790.365;53.7525;0.62768;1.0
795.363;54.0025;0.685568;1.0
800.355;54.2525;0.743443;1.0
805.337;54.5025;0.800387;1.0
810.311;54.7525;0.855548;1.0
815.273;55.0025;0.907985;1.0
820.233;55.2525;0.956892;1.0
825.19;55.5025;1.00138;1.0
830.147;55.7525;1.04064;1.0
835.104;56.0025;1.07391;1.0
840.066;56.2525;1.10055;1.0
845.0319;56.5025;1.12;1.0
849.994;56.7525;1.13182;1.0
854.957;57.0025;1.13579;1.0
859.918;57.2525;1.13183;1.0
864.877;57.5025;1.12002;1.0
869.837;57.7525;1.10061;1.0
874.792;58.0025;1.07402;1.0
879.749;58.2525;1.04078;1.0
884.703;58.5025;1.00156;1.0
889.657;58.7525;0.957121;1.0
894.614;59.0025;0.908267;1.0