File: src/data/kinetics/q20/peak_2.txt
#EXPORTTYPE:DATA SINGLE
#FTYPE:ANSI
#IDENTITY:005924
#DECIMAL:POINT
#SEPARATOR:SEMICOLON
#MTYPE:DSC
#PROJECT:
#DATE/TIME:22.07.2025 13:59
#CORR. FILE:005923_bline_Al2O3_900_20_N2_20_air_20.ngb-bs1
#TEMPCAL:TCALZERO.TCX
#SENSITIVITY:SENSZERO.EXX
#LABORATORY:13
#REMARK:
#SAMPLE:3
#SAMPLE MASS /mg:11.02
#REFERENCE:
#REFERENCE MASS /mg:0
#TYPE OF CRUCIBLE:DSC/TG pan Al2O3
#SAMPLE CRUCIBLE MASS /mg:0
#REFERENCE CRUCIBLE MASS /mg:0
#DSC RANGE /�V:5000
#TG RANGE /mg:5000
#TAU-R:---
#CORR. CODE:020
#EXO:+1
#RANGE:35�C/00:00/35�C/20,0(K/min)/920�C/
#SEGMENT:S2/2
#SEG. 1:35�C/00:15/35�C
#SEG. 2:35�C/20,0(K/min)/920�C

##Temp./�C;Time/min;DSC/(uV/mg);Sensit./(uV/mW)
34.12771;15.2525;1.20035e-88;1.0
34.24319;15.5025;1.29665e-88;1.0
34.64471;15.7525;1.69552e-88;1.0
35.4829;16.0025;2.9663e-88;1.0
36.80038;16.2525;7.13421e-88;1.0
38.58895;16.5025;2.34114e-87;1.0
40.80919;16.7525;1.01843e-86;1.0
43.38457;17.0025;5.56689e-86;1.0
46.28457;17.2525;3.73656e-85;1.0
49.45557;17.5025;2.96475e-84;1.0
52.86838;17.7525;2.72093e-83;1.0
56.49052;18.0025;2.82093e-82;1.0
60.29871;18.2525;3.24683e-81;1.0
64.26776;18.5025;4.07337e-80;1.0
68.38686;18.7525;5.52073e-79;1.0
72.62505;19.0025;7.91197e-78;1.0
76.97686;19.2525;1.19294e-76;1.0
81.44562;19.5025;1.8931e-75;1.0
86.04281;19.7525;3.17872e-74;1.0
90.75519;20.0025;5.59137e-73;1.0
95.54043;20.2525;1.00266e-71;1.0
100.409;20.5025;1.84177e-70;1.0
105.338;20.7525;3.41649e-69;1.0
110.304;21.0025;6.30574e-68;1.0
115.315;21.2525;1.16223e-66;1.0
120.365;21.5025;2.13067e-65;1.0
125.466;21.7525;3.9096e-64;1.0
130.616;22.0025;7.16597e-63;1.0
135.815;22.2525;1.31105e-61;1.0
141.059;22.5025;2.38528e-60;1.0
146.342;22.7525;4.30199e-59;1.0
151.657;23.0025;7.6527e-58;1.0
156.988;23.2525;1.33123e-56;1.0
162.33;23.5025;2.25675e-55;1.0
167.6811;23.7525;3.72621e-54;1.0
173.024;24.0025;5.9353e-53;1.0
178.4181;24.2525;9.40066e-52;1.0
183.813;24.5025;1.4428e-50;1.0
189.235;24.7525;2.17304e-49;1.0
194.669;25.0025;3.18713e-48;1.0
200.1089;25.2525;4.53899e-47;1.0
205.551;25.5025;6.26354e-46;1.0
210.995;25.7525;8.36809e-45;1.0
216.435;26.0025;1.08049e-43;1.0
221.884;26.2525;1.35617e-42;1.0
227.326;26.5025;1.64175e-41;1.0
232.769;26.7525;1.92387e-40;1.0
238.208;27.0025;2.1787e-39;1.0
243.645;27.2525;2.38686e-38;1.0
249.081;27.5025;2.52898e-37;1.0
254.513;27.7525;2.58922e-36;1.0
259.938;28.0025;2.55818e-35;1.0
265.359;28.2525;2.44279e-34;1.0
270.777;28.5025;2.25589e-33;1.0
276.19;28.7525;2.01276e-32;1.0
281.589;29.0025;1.72925e-31;1.0
286.9809;29.2525;1.43442e-30;1.0
292.374;29.5025;1.153e-29;1.0
297.754;29.7525;8.92965e-29;1.0
303.122;30.0025;6.66909e-28;1.0
308.487;30.2525;4.81962e-27;1.0
313.8459;30.5025;3.36743e-26;1.0
319.199;30.7525;2.2743e-25;1.0
324.539;31.0025;1.48165e-24;1.0
329.881;31.2525;9.35889e-24;1.0
335.21;31.5025;5.70324e-23;1.0
340.529;31.7525;3.35785e-22;1.0
345.84;32.0025;1.91102e-21;1.0
351.143;32.2525;1.05159e-20;1.0
356.438;32.5025;5.59736e-20;1.0
361.728;32.7525;2.88353e-19;1.0
367.0099;33.0025;1.4367e-18;1.0
372.279;33.2525;6.91481e-18;1.0
377.548;33.5025;3.22822e-17;1.0
382.81;33.7525;1.45876e-16;1.0
388.065;34.0025;6.38124e-16;1.0
393.315;34.2525;2.70395e-15;1.0
398.549;34.5025;1.10655e-14;1.0
403.789;34.7525;4.40087e-14;1.0
409.015;35.0025;1.69181e-13;1.0
414.236;35.2525;6.30379e-13;1.0
419.451;35.5025;2.2762e-12;1.0
424.66;35.7525;7.9631e-12;1.0
429.864;36.0025;2.7004e-11;1.0
435.062;36.2525;8.87851e-11;1.0
440.256;36.5025;2.8302e-10;1.0
445.444;36.7525;8.74735e-10;1.0
450.626;37.0025;2.6208e-09;1.0
455.799;37.2525;7.6104e-09;1.0
460.966;37.5025;2.1429e-08;1.0
466.133;37.7525;5.85789e-08;1.0
471.29;38.0025;1.55228e-07;1.0
476.442;38.2525;3.99114e-07;1.0
481.587;38.5025;9.95218e-07;1.0
486.731;38.7525;2.40971e-06;1.0
491.871;39.0025;5.66315e-06;1.0
497.004;39.2525;1.29144e-05;1.0
502.138;39.5025;2.86081e-05;1.0
507.262;39.7525;6.14665e-05;1.0
512.391;40.0025;0.000128386;1.0
517.514;40.2525;0.000260299;1.0
522.643;40.5025;0.000513077;1.0
527.765;40.7525;0.000981534;1.0
532.896;41.0025;0.00182612;1.0
538.037;41.2525;0.00330378;1.0
543.189;41.5025;0.00581243;1.0
548.349;41.7525;0.00993845;1.0
553.515;42.0025;0.0165113;1.0
558.684;42.2525;0.0266439;1.0
563.854;42.5025;0.0417487;1.0
569.049;42.7525;0.0636382;1.0
574.26;43.0025;0.0942702;1.0
579.422;43.2525;0.13508;1.0
584.76;43.5025;0.189996;1.0
590.127;43.7525;0.259358;1.0
595.457;44.0025;0.342362;1.0
600.648;44.2525;0.43536;1.0
605.784;44.5025;0.536287;1.0
610.83;44.7525;0.639817;1.0
615.742;45.0025;0.739546;1.0
620.639;45.2525;0.832089;1.0
625.545;45.5025;0.91192;1.0
630.459;45.7525;0.973293;1.0
635.38;46.0025;1.01153;1.0
640.308;46.2525;1.02356;1.0
645.26;46.5025;1.00821;1.0
650.236;46.7525;0.96634;1.0
655.221;47.0025;0.901113;1.0
660.22;47.2525;0.817316;1.0
665.225;47.5025;0.721029;1.0
670.231;47.7525;0.61873;1.0
675.241;48.0025;0.516398;1.0
680.257;48.2525;0.419101;1.0
685.271;48.5025;0.330854;1.0
690.28;48.7525;0.25413;1.0
695.2828;49.0025;0.189931;1.0
700.282;49.2525;0.138118;1.0
705.281;49.5025;0.0977105;1.0
710.284;49.7525;0.0672265;1.0
715.28;50.0025;0.0450209;1.0
720.278;50.2525;0.0293231;1.0
725.282;50.5025;0.0185709;1.0
730.282;50.7525;0.0114454;1.0
735.28;51.0025;0.00686327;1.0
740.272;51.2525;0.00400602;1.0
745.26;51.5025;0.00227615;1.0
750.243;51.7525;0.00125898;1.0
755.23;52.0025;0.000677241;1.0
760.233;52.2525;0.000353686;1.0
765.25;52.5025;0.000179336;1.0
770.278;52.7525;8.83042e-05;1.0
775.306;53.0025;4.2282e-05;1.0
780.335;53.2525;1.96867e-05;1.0
785.353;53.5025;8.93052e-06;1.0
790.365;53.7525;3.94334e-06;1.0
795.363;54.0025;1.69807e-06;1.0
800.355;54.2525;7.11943e-07;1.0
805.337;54.5025;2.90979e-07;1.0
810.311;54.7525;1.15889e-07;1.0
815.273;55.0025;4.50119e-08;1.0
820.233;55.2525;1.70218e-08;1.0
825.19;55.5025;6.26833e-09;1.0
830.147;55.7525;2.24671e-09;1.0
835.104;56.0025;7.83842e-10;1.0
840.066;56.2525;2.65841e-10;1.0
845.0319;56.5025;8.76553e-11;1.0
849.994;56.7525;2.81542e-11;1.0
854.957;57.0025;8.79906e-12;1.0
859.918;57.2525;2.67713e-12;1.0
864.877;57.5025;7.93256e-13;1.0
869.837;57.7525;2.28692e-13;1.0
874.792;58.0025;6.42498e-14;1.0
879.749;58.2525;1.75585e-14;1.0
884.703;58.5025;4.67392e-15;1.0
889.657;58.7525;1.21079e-15;1.0
894.614;59.0025;3.05071e-16;1.0