File: src/data/kinetics/q20/peak_1.txt
#EXPORTTYPE:DATA SINGLE
#FTYPE:ANSI
#IDENTITY:005924
#DECIMAL:POINT
#SEPARATOR:SEMICOLON
#MTYPE:DSC
#PROJECT:
#DATE/TIME:22.07.2025 13:59
#CORR. FILE:005923_bline_Al2O3_900_20_N2_20_air_20.ngb-bs1
#TEMPCAL:TCALZERO.TCX
#SENSITIVITY:SENSZERO.EXX
#LABORATORY:13
#REMARK:
#SAMPLE:3
#SAMPLE MASS /mg:11.02
#REFERENCE:
#REFERENCE MASS /mg:0
#TYPE OF CRUCIBLE:DSC/TG pan Al2O3
#SAMPLE CRUCIBLE MASS /mg:0
#REFERENCE CRUCIBLE MASS /mg:0
#DSC RANGE /�V:5000
#TG RANGE /mg:5000
#TAU-R:---
#CORR. CODE:020
#EXO:+1
#RANGE:35�C/00:00/35�C/20,0(K/min)/920�C/
#SEGMENT:S2/2
#SEG. 1:35�C/00:15/35�C
#SEG. 2:35�C/20,0(K/min)/920�C

##Temp./�C;Time/min;DSC/(uV/mg);Sensit./(uV/mW)
34.12771;15.2525;1.86653e-131;1.0
34.24319;15.5025;2.1271e-131;1.0
34.64471;15.7525;3.3498e-131;1.0
35.4829;16.0025;8.63514e-131;1.0
36.80038;16.2525;3.81387e-130;1.0
38.58895;16.5025;2.84812e-129;1.0
40.80919;16.7525;3.42279e-128;1.0
43.38457;17.0025;6.04247e-127;1.0
46.28457;17.2525;1.50614e-125;1.0
49.45557;17.5025;4.96739e-124;1.0
52.86838;17.7525;2.08823e-122;1.0
56.49052;18.0025;1.07457e-120;1.0
60.29871;18.2525;6.56918e-119;1.0
64.26776;18.5025;4.62347e-117;1.0
68.38686;18.7525;3.68859e-115;1.0
72.62505;19.0025;3.21632e-113;1.0
76.97686;19.2525;3.03804e-111;1.0
81.44562;19.5025;3.10944e-109;1.0
86.04281;19.7525;3.47749e-107;1.0
90.75519;20.0025;4.17726e-105;1.0
95.54043;20.2525;5.14818e-103;1.0
100.409;20.5025;6.55969e-101;1.0
105.338;20.7525;8.43612e-99;1.0
110.304;21.0025;1.0681e-96;1.0
115.315;21.2525;1.33921e-94;1.0
120.365;21.5025;1.65159e-92;1.0
125.466;21.7525;2.02389e-90;1.0
130.616;22.0025;2.45569e-88;1.0
135.815;22.2525;2.94592e-86;1.0
141.059;22.5025;3.47183e-84;1.0
146.342;22.7525;3.99803e-82;1.0
151.657;23.0025;4.4607e-80;1.0
156.988;23.2525;4.75425e-78;1.0
162.33;23.5025;4.81278e-76;1.0
167.6811;23.7525;4.6231e-74;1.0
173.024;24.0025;4.14875e-72;1.0
178.4181;24.2525;3.65307e-70;1.0
183.813;24.5025;3.02639e-68;1.0
189.235;24.7525;2.40743e-66;1.0
194.669;25.0025;1.81592e-64;1.0
200.1089;25.2525;1.2928e-62;1.0
205.551;25.5025;8.65685e-61;1.0
210.995;25.7525;5.44512e-59;1.0
216.435;26.0025;3.20825e-57;1.0
221.884;26.2525;1.78705e-55;1.0
227.326;26.5025;9.29399e-54;1.0
232.769;26.7525;4.53918e-52;1.0
238.208;27.0025;2.07645e-50;1.0
243.645;27.2525;8.91177e-49;1.0
249.081;27.5025;3.58685e-47;1.0
254.513;27.7525;1.35201e-45;1.0
259.938;28.0025;4.76321e-44;1.0
265.359;28.2525;1.57218e-42;1.0
270.777;28.5025;4.86678e-41;1.0
276.19;28.7525;1.41076e-39;1.0
281.589;29.0025;3.81011e-38;1.0
286.9809;29.2525;9.62733e-37;1.0
292.374;29.5025;2.28869e-35;1.0
297.754;29.7525;5.07478e-34;1.0
303.122;30.0025;1.05102e-32;1.0
308.487;30.2525;2.04377e-31;1.0
313.8459;30.5025;3.72677e-30;1.0
319.199;30.7525;6.37114e-29;1.0
324.539;31.0025;1.01804e-27;1.0
329.881;31.2525;1.53211e-26;1.0
335.21;31.5025;2.15593e-25;1.0
340.529;31.7525;2.84285e-24;1.0
345.84;32.0025;3.51559e-23;1.0
351.143;32.2525;4.07908e-22;1.0
356.438;32.5025;4.44359e-21;1.0
361.728;32.7525;4.54874e-20;1.0
367.0099;33.0025;4.37147e-19;1.0
372.279;33.2525;3.93776e-18;1.0
377.548;33.5025;3.34415e-17;1.0
382.81;33.7525;2.66969e-16;1.0
388.065;34.0025;2.00398e-15;1.0
393.315;34.2525;1.41571e-14;1.0
398.549;34.5025;9.37571e-14;1.0
403.789;34.7525;5.87011e-13;1.0
409.015;35.0025;3.44983e-12;1.0
414.236;35.2525;1.91018e-11;1.0
419.451;35.5025;9.963e-11;1.0
424.66;35.7525;4.8939e-10;1.0
429.864;36.0025;2.26552e-09;1.0
435.062;36.2525;9.88713e-09;1.0
440.256;36.5025;4.06804e-08;1.0
445.444;36.7525;1.57819e-07;1.0
450.626;37.0025;5.77201e-07;1.0
455.799;37.2525;1.9899e-06;1.0
460.966;37.5025;6.47074e-06;1.0
466.133;37.7525;1.98751e-05;1.0
471.29;38.0025;5.75703e-05;1.0
476.442;38.2525;0.000157438;1.0
481.587;38.5025;0.000406315;1.0
486.731;38.7525;0.000990928;1.0
491.871;39.0025;0.00228288;1.0
497.004;39.2525;0.00496707;1.0
502.138;39.5025;0.010218;1.0
507.262;39.7525;0.0198477;1.0
512.391;40.0025;0.036477;1.0
517.514;40.2525;0.0633515;1.0
522.643;40.5025;0.1041;1.0
527.765;40.7525;0.161644;1.0
532.896;41.0025;0.237509;1.0
538.037;41.2525;0.330137;1.0
543.189;41.5025;0.43401;1.0
548.349;41.7525;0.539354;1.0
553.515;42.0025;0.633422;1.0
558.684;42.2525;0.702837;1.0
563.854;42.5025;0.736718;1.0
569.049;42.7525;0.729366;1.0
574.26;43.0025;0.681555;1.0
579.422;43.2525;0.601973;1.0
584.76;43.5025;0.498743;1.0
590.127;43.7525;0.38832;1.0
595.457;44.0025;0.28502;1.0
600.648;44.2525;0.198977;1.0
605.784;44.5025;0.131784;1.0
610.83;44.7525;0.0832321;1.0
615.742;45.0025;0.0505113;1.0
620.639;45.2525;0.0291717;1.0
625.545;45.5025;0.0159886;1.0
630.459;45.7525;0.00831689;1.0
635.38;46.0025;0.00410482;1.0
640.308;46.2525;0.00192212;1.0
645.26;46.5025;0.000851101;1.0
650.236;46.7525;0.000356209;1.0
655.221;47.0025;0.000141171;1.0
660.22;47.2525;5.29159e-05;1.0
665.225;47.5025;1.87811e-05;1.0
670.231;47.7525;6.31832e-06;1.0
675.241;48.0025;2.01346e-06;1.0
680.257;48.2525;6.07267e-07;1.0
685.271;48.5025;1.73671e-07;1.0
690.28;48.7525;4.71556e-08;1.0
695.2828;49.0025;1.21551e-08;1.0
700.282;49.2525;2.97365e-09;1.0
705.281;49.5025;6.89833e-10;1.0
710.284;49.7525;1.51569e-10;1.0
715.28;50.0025;3.16475e-11;1.0
720.278;50.2525;6.25937e-12;1.0
725.282;50.5025;1.17188e-12;1.0
730.282;50.7525;2.08285e-13;1.0
735.28;51.0025;3.51233e-14;1.0
740.272;51.2525;5.62672e-15;1.0
745.26;51.5025;8.5641e-16;1.0
750.243;51.7525;1.23851e-16;1.0
755.23;52.0025;1.69636e-17;1.0
760.233;52.2525;2.18883e-18;1.0
765.25;52.5025;2.66183e-19;1.0
770.278;52.7525;3.05365e-20;1.0
775.306;53.0025;3.31883e-21;1.0
780.335;53.2525;3.41692e-22;1.0
785.353;53.5025;3.35148e-23;1.0
790.365;53.7525;3.12279e-24;1.0
795.363;54.0025;2.77889e-25;1.0
800.355;54.2525;2.35031e-26;1.0
805.337;54.5025;1.89563e-27;1.0
810.311;54.7525;1.45626e-28;1.0
815.273;55.0025;1.06776e-29;1.0
820.233;55.2525;7.43792e-31;1.0
825.19;55.5025;4.92446e-32;1.0
830.147;55.7525;3.09454e-33;1.0
835.104;56.0025;1.84612e-34;1.0
840.066;56.2525;1.0419e-35;1.0
845.0319;56.5025;5.56487e-37;1.0
849.994;56.7525;2.82737e-38;1.0
854.957;57.0025;1.3625e-39;1.0
859.918;57.2525;6.23548e-41;1.0
864.877;57.5025;2.71279e-42;1.0
869.837;57.7525;1.11917e-43;1.0
874.792;58.0025;4.39608e-45;1.0
879.749;58.2525;1.63648e-46;1.0
884.703;58.5025;5.79312e-48;1.0
889.657;58.7525;1.94576e-49;1.0
894.614;59.0025;6.19187e-51;1.0