File: src/data/kinetics/q7t5/peak_1.txt
#EXPORTTYPE:DATA SINGLE
#FTYPE:ANSI
#DECIMAL:POINT
#SEPARATOR:SEMICOLON
#MTYPE:DSC
#PROJECT:
#CORR. FILE:005925_bline_Al2O3_900_7.5_N2_20_air_20.ngb-bs1
#TEMPCAL:TCALZERO.TCX
#SENSITIVITY:SENSZERO.EXX
#LABORATORY:13
#OPERATOR:
#REMARK:
#SAMPLE:4
#SAMPLE MASS /mg:7.42
#MATERIAL:
#REFERENCE:
#REFERENCE MASS /mg:0
#TYPE OF CRUCIBLE:DSC/TG pan Al2O3
#SAMPLE CRUCIBLE MASS /mg:0
#REFERENCE CRUCIBLE MASS /mg:0
#DSC RANGE /V:5000
#TG RANGE /mg:5000
#TAU-R:---
#CORR. CODE:020
#EXO:+1
#RANGE:35C/7,5(K/min)/920�C
#SEGMENT:S1/1
#SEG. 1:35�C/7,5(K/min)/920�C

##Temp./�C;Time/min;DSC/(uV/mg);Sensit./(uV/mW)
34.14896;0.5;0.0;1.0
34.59436;1.0;0.0;1.0
35.68375;1.5;0.0;1.0
37.32905;2.0;0.0;1.0
39.42311;2.5;0.0;1.0
41.82416;3.0;0.0;1.0
44.48642;3.5;0.0;1.0
47.36371;4.0;0.0;1.0
50.40853;4.5;0.0;1.0
53.59856;5.0;0.0;1.0
56.91062;5.5;0.0;1.0
60.33416;6.0;0.0;1.0
63.83709;6.5;0.0;1.0
67.40722;7.0;0.0;1.0
71.01816;7.5;0.0;1.0
74.673;8.0;0.0;1.0
78.36113;8.5;0.0;1.0
82.0722;9.0;0.0;1.0
85.82376;9.5;0.0;1.0
89.60155;10.0;0.0;1.0
93.40258;10.5;0.0;1.0
97.22127;11.0;0.0;1.0
101.0636;11.5;0.0;1.0
104.918;12.0;0.0;1.0
108.783;12.5;0.0;1.0
112.642;13.0;0.0;1.0
116.508;13.5;0.0;1.0
120.368;14.0;0.0;1.0
124.229;14.5;0.0;1.0
128.1;15.0;0.0;1.0
131.969;15.5;0.0;1.0
135.851;16.0;0.0;1.0
139.739;16.5;0.0;1.0
143.637;17.0;0.0;1.0
147.54;17.5;0.0;1.0
151.447;18.0;0.0;1.0
155.351;18.5;0.0;1.0
159.254;19.0;0.0;1.0
163.1588;19.5;0.0;1.0
167.059;20.0;0.0;1.0
170.9538;20.5;0.0;1.0
174.8622;21.0;0.0;1.0
178.753;21.5;0.0;1.0
182.6578;22.0;0.0;1.0
186.561;22.5;0.0;1.0
190.467;23.0;0.0;1.0
194.37;23.5;0.0;1.0
198.27;24.0;0.0;1.0
202.169;24.5;0.0;1.0
206.063;25.0;0.0;1.0
209.955;25.5;0.0;1.0
213.846;26.0;0.0;1.0
217.731;26.5;0.0;1.0
221.614;27.0;0.0;1.0
225.496;27.5;0.0;1.0
229.384;28.0;0.0;1.0
233.268;28.5;0.0;1.0
237.151;29.0;0.0;1.0
241.031;29.5;0.0;1.0
244.91;30.0;0.0;1.0
248.785;30.5;0.0;1.0
252.667;31.0;0.0;1.0
256.535;31.5;0.0;1.0
260.406;32.0;0.0;1.0
264.2732;32.5;0.0;1.0
268.144;33.0;0.0;1.0
272.016;33.5;0.0;1.0
275.882;34.0;0.0;1.0
279.747;34.5;5.786e-321;1.0
283.612;35.0;7.60939e-311;1.0
287.475;35.5;6.7871e-301;1.0
291.334;36.0;4.08072e-291;1.0
295.187;36.5;1.63697e-281;1.0
299.038;37.0;4.45284e-272;1.0
302.89;37.5;8.37319e-263;1.0
306.742;38.0;1.08536e-253;1.0
310.596;38.5;9.78976e-245;1.0
314.448;39.0;6.04775e-236;1.0
318.302;39.5;2.58298e-227;1.0
322.149;40.0;7.36759e-219;1.0
325.994;40.5;1.43375e-210;1.0
329.836;41.0;1.89421e-202;1.0
333.676;41.5;1.71373e-194;1.0
337.513;42.0;1.05588e-186;1.0
341.344;42.5;4.34981e-179;1.0
345.166;43.0;1.19868e-171;1.0
348.9924;43.5;2.32655e-164;1.0
352.815;44.0;3.07728e-157;1.0
356.633;44.5;2.75962e-150;1.0
360.4502;45.0;1.71702e-143;1.0
364.264;45.5;7.30894e-137;1.0
368.076;46.0;2.13242e-130;1.0
371.885;46.5;4.29204e-124;1.0
375.692;47.0;5.95233e-118;1.0
379.505;47.5;5.8579e-112;1.0
383.318;48.0;3.99018e-106;1.0
387.127;48.5;1.86592e-100;1.0
390.937;49.0;6.08006e-95;1.0
394.738;49.5;1.3351e-89;1.0
398.538;50.0;2.03436e-84;1.0
402.337;50.5;2.14864e-79;1.0
406.133;51.0;1.56852e-74;1.0
409.932;51.5;8.0289e-70;1.0
413.734;52.0;2.87985e-65;1.0
417.53;52.5;7.08424e-61;1.0
421.327;53.0;1.21716e-56;1.0
425.122;53.5;1.44449e-52;1.0
428.909;54.0;1.17526e-48;1.0
432.696;54.5;6.66144e-45;1.0
436.484;55.0;2.63581e-41;1.0
440.271;55.5;7.28051e-38;1.0
444.066;56.0;1.42094e-34;1.0
447.854;56.5;1.90655e-31;1.0
451.637;57.0;1.77047e-28;1.0
455.424;57.5;1.15401e-25;1.0
459.212;58.0;5.25319e-23;1.0
462.995;58.5;1.65627e-20;1.0
466.78;59.0;3.65697e-18;1.0
470.554;59.5;5.5518e-16;1.0
474.329;60.0;5.89421e-14;1.0
478.106;60.5;4.38832e-12;1.0
481.877;61.0;2.27061e-10;1.0
485.652;61.5;8.23612e-09;1.0
489.424;62.0;2.08518e-07;1.0
493.193;62.5;3.68448e-06;1.0
496.965;63.0;4.56494e-05;1.0
500.744;63.5;0.000397137;1.0
504.524;64.0;0.00241389;1.0
508.303;64.5;0.0102428;1.0
512.088;65.0;0.0303987;1.0
515.875;65.5;0.0629677;1.0
519.665;66.0;0.090991;1.0
523.463;66.5;0.091614;1.0
527.268;67.0;0.0641372;1.0
531.111;67.5;0.030927;1.0
535.001;68.0;0.0101286;1.0
538.928;68.5;0.00223216;1.0
542.743;69.0;0.000354452;1.0
546.55;69.5;3.92286e-05;1.0
550.383;70.0;2.96113e-06;1.0
554.184;70.5;1.58579e-07;1.0
557.935;71.0;6.18344e-09;1.0
561.663;71.5;1.73402e-10;1.0
565.37;72.0;3.50836e-12;1.0
569.063;72.5;5.10725e-14;1.0
572.754;73.0;5.29268e-16;1.0
576.457;73.5;3.83226e-18;1.0
580.161;74.0;1.96288e-20;1.0
583.862;74.5;7.16102e-23;1.0
587.572;75.0;1.82337e-25;1.0
591.287;75.5;3.25433e-28;1.0
595.011;76.0;4.03953e-31;1.0
598.7338;76.5;3.55074e-34;1.0
602.462;77.0;2.1781e-37;1.0
606.19;77.5;9.42415e-41;1.0
609.922;78.0;2.85234e-44;1.0
613.6602;78.5;5.99481e-48;1.0
617.394;79.0;8.95462e-52;1.0
621.129;79.5;9.41139e-56;1.0
624.865;80.0;6.95379e-60;1.0
628.596;80.5;3.65422e-64;1.0
632.325;81.0;1.36351e-68;1.0
636.053;81.5;3.60565e-73;1.0
639.777;82.0;6.78668e-78;1.0
643.495;82.5;9.18395e-83;1.0
647.214;83.0;8.75532e-88;1.0
650.933;83.5;5.91613e-93;1.0
654.65;84.0;2.83575e-98;1.0
658.368;84.5;9.54494e-104;1.0
662.089;85.0;2.25441e-109;1.0
665.812;85.5;3.72719e-115;1.0
669.526;86.0;4.50713e-121;1.0
673.235;86.5;3.92744e-127;1.0
676.932;87.0;2.53373e-133;1.0
680.621;87.5;1.19492e-139;1.0
684.301;88.0;4.17197e-146;1.0
687.975;88.5;1.05947e-152;1.0
691.6386;89.0;2.00697e-159;1.0
695.298;89.5;2.75958e-166;1.0
698.957;90.0;2.72282e-173;1.0
702.6104;90.5;1.96378e-180;1.0
706.277;91.0;9.52844e-188;1.0
709.947;91.5;3.25457e-195;1.0
713.632;92.0;7.32427e-203;1.0
717.331;92.5;1.10056e-210;1.0
721.039;93.0;1.11967e-218;1.0
724.755;93.5;7.73402e-227;1.0
728.468;94.0;3.8422e-235;1.0
732.1838;94.5;1.32556e-243;1.0
735.899;95.0;3.25342e-252;1.0
739.613;95.5;5.68226e-261;1.0
743.327;96.0;6.9953e-270;1.0
747.039;96.5;6.17277e-279;1.0
750.748;97.0;3.9193e-288;1.0
754.452;97.5;1.81527e-297;1.0
758.164;98.0;5.66373e-307;1.0
761.881;98.5;1.21718e-316;1.0
765.603;99.0;0.0;1.0
769.328;99.5;0.0;1.0
773.047;100.0;0.0;1.0
776.767;100.5;0.0;1.0
780.486;101.0;0.0;1.0
784.203;101.5;0.0;1.0
787.921;102.0;0.0;1.0
791.638;102.5;0.0;1.0
795.3552;103.0;0.0;1.0
799.075;103.5;0.0;1.0
802.799;104.0;0.0;1.0
806.516;104.5;0.0;1.0
810.234;105.0;0.0;1.0
813.949;105.5;0.0;1.0
817.668;106.0;0.0;1.0
821.39;106.5;0.0;1.0
825.108;107.0;0.0;1.0
828.833;107.5;0.0;1.0
832.557;108.0;0.0;1.0
836.283;108.5;0.0;1.0
840.01;109.0;0.0;1.0
843.739;109.5;0.0;1.0
847.464;110.0;0.0;1.0
851.174;110.5;0.0;1.0
854.889;111.0;0.0;1.0
858.605;111.5;0.0;1.0
862.3222;112.0;0.0;1.0
866.0378;112.5;0.0;1.0
869.751;113.0;0.0;1.0
873.463;113.5;0.0;1.0
877.17;114.0;0.0;1.0
880.875;114.5;0.0;1.0
884.583;115.0;0.0;1.0
888.291;115.5;0.0;1.0
891.993;116.0;0.0;1.0
895.693;116.5;0.0;1.0
899.391;117.0;0.0;1.0
903.082;117.5;0.0;1.0