File: src/data/kinetics/q7t5/peak_3.txt
#EXPORTTYPE:DATA SINGLE
#FTYPE:ANSI
#DECIMAL:POINT
#SEPARATOR:SEMICOLON
#MTYPE:DSC
#PROJECT:
#CORR. FILE:005925_bline_Al2O3_900_7.5_N2_20_air_20.ngb-bs1
#TEMPCAL:TCALZERO.TCX
#SENSITIVITY:SENSZERO.EXX
#LABORATORY:13
#OPERATOR:
#REMARK:
#SAMPLE:4
#SAMPLE MASS /mg:7.42
#MATERIAL:
#REFERENCE:
#REFERENCE MASS /mg:0
#TYPE OF CRUCIBLE:DSC/TG pan Al2O3
#SAMPLE CRUCIBLE MASS /mg:0
#REFERENCE CRUCIBLE MASS /mg:0
#DSC RANGE /V:5000
#TG RANGE /mg:5000
#TAU-R:---
#CORR. CODE:020
#EXO:+1
#RANGE:35C/7,5(K/min)/920�C
#SEGMENT:S1/1
#SEG. 1:35�C/7,5(K/min)/920�C

##Temp./�C;Time/min;DSC/(uV/mg);Sensit./(uV/mW)
34.14896;0.5;7.3153e-142;1.0
34.59436;1.0;1.17909e-141;1.0
35.68375;1.5;3.78417e-141;1.0
37.32905;2.0;2.19327e-140;1.0
39.42311;2.5;2.03868e-139;1.0
41.82416;3.0;2.60262e-138;1.0
44.48642;3.5;4.33136e-137;1.0
47.36371;4.0;8.91981e-136;1.0
50.40853;4.5;2.15604e-134;1.0
53.59856;5.0;5.96061e-133;1.0
56.91062;5.5;1.83571e-131;1.0
60.33416;6.0;6.21681e-130;1.0
63.83709;6.5;2.23609e-128;1.0
67.40722;7.0;8.42488e-127;1.0
71.01816;7.5;3.2337e-125;1.0
74.673;8.0;1.26736e-123;1.0
78.36113;8.5;5.01431e-122;1.0
82.0722;9.0;1.98115e-120;1.0
85.82376;9.5;7.94867e-119;1.0
89.60155;10.0;3.19126e-117;1.0
93.40258;10.5;1.27772e-115;1.0
97.22127;11.0;5.07202e-114;1.0
101.0636;11.5;2.00688e-112;1.0
104.918;12.0;7.82462e-111;1.0
108.783;12.5;3.00042e-109;1.0
112.642;13.0;1.11575e-107;1.0
116.508;13.5;4.06138e-106;1.0
120.368;14.0;1.43267e-104;1.0
124.229;14.5;4.92964e-103;1.0
128.1;15.0;1.66534e-101;1.0
131.969;15.5;5.4723e-100;1.0
135.851;16.0;1.77151e-98;1.0
139.739;16.5;5.61632e-97;1.0
143.637;17.0;1.74752e-95;1.0
147.54;17.5;5.32219e-94;1.0
151.447;18.0;1.58102e-92;1.0
155.351;18.5;4.56532e-91;1.0
159.254;19.0;1.28128e-89;1.0
163.1588;19.5;3.50656e-88;1.0
167.059;20.0;9.30165e-87;1.0
170.9538;20.5;2.39294e-85;1.0
174.8622;21.0;6.0584e-84;1.0
178.753;21.5;1.47225e-82;1.0
182.6578;22.0;3.5202e-81;1.0
186.561;22.5;8.18426e-80;1.0
190.467;23.0;1.85746e-78;1.0
194.37;23.5;4.09069e-77;1.0
198.27;24.0;8.75251e-76;1.0
202.169;24.5;1.82131e-74;1.0
206.063;25.0;3.67684e-73;1.0
209.955;25.5;7.20884e-72;1.0
213.846;26.0;1.37589e-70;1.0
217.731;26.5;2.5452e-69;1.0
221.614;27.0;4.57838e-68;1.0
225.496;27.5;8.01231e-67;1.0
229.384;28.0;1.37062e-65;1.0
233.268;28.5;2.27633e-64;1.0
237.151;29.0;3.67923e-63;1.0
241.031;29.5;5.77888e-62;1.0
244.91;30.0;8.83166e-61;1.0
248.785;30.5;1.31087e-59;1.0
252.667;31.0;1.90278e-58;1.0
256.535;31.5;2.66576e-57;1.0
260.406;32.0;3.64325e-56;1.0
264.2732;32.5;4.8365e-55;1.0
268.144;33.0;6.27007e-54;1.0
272.016;33.5;7.91526e-53;1.0
275.882;34.0;9.70323e-52;1.0
279.747;34.5;1.15723e-50;1.0
283.612;35.0;1.34391e-49;1.0
287.475;35.5;1.51792e-48;1.0
291.334;36.0;1.66634e-47;1.0
295.187;36.5;1.77592e-46;1.0
299.038;37.0;1.8406e-45;1.0
302.89;37.5;1.85896e-44;1.0
306.742;38.0;1.82903e-43;1.0
310.596;38.5;1.75494e-42;1.0
314.448;39.0;1.63925e-41;1.0
318.302;39.5;1.49215e-40;1.0
322.149;40.0;1.31852e-39;1.0
325.994;40.5;1.13365e-38;1.0
329.836;41.0;9.47846e-38;1.0
333.676;41.5;7.71388e-37;1.0
337.513;42.0;6.10657e-36;1.0
341.344;42.5;4.69205e-35;1.0
345.166;43.0;3.49905e-34;1.0
348.9924;43.5;2.54785e-33;1.0
352.815;44.0;1.80443e-32;1.0
356.633;44.5;1.2421e-31;1.0
360.4502;45.0;8.33328e-31;1.0
364.264;45.5;5.43956e-30;1.0
368.076;46.0;3.45523e-29;1.0
371.885;46.5;2.13743e-28;1.0
375.692;47.0;1.28743e-27;1.0
379.505;47.5;7.57908e-27;1.0
383.318;48.0;4.34704e-26;1.0
387.127;48.5;2.42649e-25;1.0
390.937;49.0;1.32074e-24;1.0
394.738;49.5;6.97804e-24;1.0
398.538;50.0;3.59262e-23;1.0
402.337;50.5;1.80208e-22;1.0
406.133;51.0;8.80308e-22;1.0
409.932;51.5;4.19643e-21;1.0
413.734;52.0;1.95205e-20;1.0
417.53;52.5;8.83251e-20;1.0
421.327;53.0;3.89784e-19;1.0
425.122;53.5;1.67481e-18;1.0
428.909;54.0;6.99765e-18;1.0
432.696;54.5;2.85002e-17;1.0
436.484;55.0;1.13188e-16;1.0
440.271;55.5;4.38338e-16;1.0
444.066;56.0;1.65891e-15;1.0
447.854;56.5;6.10584e-15;1.0
451.637;57.0;2.1879e-14;1.0
455.424;57.5;7.65254e-14;1.0
459.212;58.0;2.61028e-13;1.0
462.995;58.5;8.66806e-13;1.0
466.78;59.0;2.80859e-12;1.0
470.554;59.5;8.84242e-12;1.0
474.329;60.0;2.71483e-11;1.0
478.106;60.5;8.13432e-11;1.0
481.877;61.0;2.37292e-10;1.0
485.652;61.5;6.75479e-10;1.0
489.424;62.0;1.87395e-09;1.0
493.193;62.5;5.06569e-09;1.0
496.965;63.0;1.33644e-08;1.0
500.744;63.5;3.44455e-08;1.0
504.524;64.0;8.65816e-08;1.0
508.303;64.5;2.12149e-07;1.0
512.088;65.0;5.075e-07;1.0
515.875;65.5;1.1842e-06;1.0
519.665;66.0;2.69623e-06;1.0
523.463;66.5;5.9933e-06;1.0
527.268;67.0;1.30068e-05;1.0
531.111;67.5;2.77183e-05;1.0
535.001;68.0;5.80543e-05;1.0
538.928;68.5;0.000119162;1.0
542.743;69.0;0.000233441;1.0
546.55;69.5;0.000445157;1.0
550.383;70.0;0.000830789;1.0
554.184;70.5;0.00150346;1.0
557.935;71.0;0.0026328;1.0
561.663;71.5;0.0044823;1.0
565.37;72.0;0.00742554;1.0
569.063;72.5;0.0119858;1.0
572.754;73.0;0.0188805;1.0
576.457;73.5;0.0290722;1.0
580.161;74.0;0.0436985;1.0
583.862;74.5;0.0640869;1.0
587.572;75.0;0.0918204;1.0
591.287;75.5;0.128453;1.0
595.011;76.0;0.175494;1.0
598.7338;76.5;0.233922;1.0
602.462;77.0;0.304373;1.0
606.19;77.5;0.386426;1.0
609.922;78.0;0.478785;1.0
613.6602;78.5;0.578966;1.0
617.394;79.0;0.682911;1.0
621.129;79.5;0.785913;1.0
624.865;80.0;0.882437;1.0
628.596;80.5;0.966596;1.0
632.325;81.0;1.03299;1.0
636.053;81.5;1.07712;1.0
639.777;82.0;1.09587;1.0
643.495;82.5;1.08797;1.0
647.214;83.0;1.05404;1.0
650.933;83.5;0.996513;1.0
654.65;84.0;0.919403;1.0
658.368;84.5;0.827742;1.0
662.089;85.0;0.727164;1.0
665.812;85.5;0.623293;1.0
669.526;86.0;0.52158;1.0
673.235;86.5;0.426072;1.0
676.932;87.0;0.339943;1.0
680.621;87.5;0.26489;1.0
684.301;88.0;0.201656;1.0
687.975;88.5;0.149952;1.0
691.6386;89.0;0.108981;1.0
695.298;89.5;0.0773752;1.0
698.957;90.0;0.0536559;1.0
702.6104;90.5;0.0363576;1.0
706.277;91.0;0.0240248;1.0
709.947;91.5;0.0154971;1.0
713.632;92.0;0.00974055;1.0
717.331;92.5;0.00596669;1.0
721.039;93.0;0.00356294;1.0
724.755;93.5;0.00207394;1.0
728.468;94.0;0.00117871;1.0
732.1838;94.5;0.000653417;1.0
735.899;95.0;0.000353555;1.0
739.613;95.5;0.000186731;1.0
743.327;96.0;9.62365e-05;1.0
747.039;96.5;4.84247e-05;1.0
750.748;97.0;2.37938e-05;1.0
754.452;97.5;1.14222e-05;1.0
758.164;98.0;5.34237e-06;1.0
761.881;98.5;2.43628e-06;1.0
765.603;99.0;1.08281e-06;1.0
769.328;99.5;4.69397e-07;1.0
773.047;100.0;1.98784e-07;1.0
776.767;100.5;8.2146e-08;1.0
780.486;101.0;3.31269e-08;1.0
784.203;101.5;1.30463e-08;1.0
787.921;102.0;5.0122e-09;1.0
791.638;102.5;1.8796e-09;1.0
795.3552;103.0;6.87756e-10;1.0
799.075;103.5;2.45418e-10;1.0
802.799;104.0;8.53635e-11;1.0
806.516;104.5;2.9028e-11;1.0
810.234;105.0;9.63136e-12;1.0
813.949;105.5;3.12065e-12;1.0
817.668;106.0;9.85717e-13;1.0
821.39;106.5;3.03464e-13;1.0
825.108;107.0;9.12934e-14;1.0
828.833;107.5;2.67455e-14;1.0
832.557;108.0;7.64635e-15;1.0
836.283;108.5;2.13147e-15;1.0
840.01;109.0;5.79736e-16;1.0
843.739;109.5;1.53739e-16;1.0
847.464;110.0;3.98271e-17;1.0
851.174;110.5;1.01248e-17;1.0
854.889;111.0;2.50696e-18;1.0
858.605;111.5;6.05641e-19;1.0
862.3222;112.0;1.42728e-19;1.0
866.0378;112.5;3.28418e-20;1.0
869.751;113.0;7.38043e-21;1.0
873.463;113.5;1.62011e-21;1.0
877.17;114.0;3.47788e-22;1.0
880.875;114.5;7.29167e-23;1.0
884.583;115.0;1.48971e-23;1.0
888.291;115.5;2.97182e-24;1.0
891.993;116.0;5.79979e-25;1.0
895.693;116.5;1.10622e-25;1.0
899.391;117.0;2.06093e-26;1.0
903.082;117.5;3.75939e-27;1.0