File: src/data/kinetics/q7t5/peak_2.txt
#EXPORTTYPE:DATA SINGLE
#FTYPE:ANSI
#DECIMAL:POINT
#SEPARATOR:SEMICOLON
#MTYPE:DSC
#PROJECT:
#CORR. FILE:005925_bline_Al2O3_900_7.5_N2_20_air_20.ngb-bs1
#TEMPCAL:TCALZERO.TCX
#SENSITIVITY:SENSZERO.EXX
#LABORATORY:13
#OPERATOR:
#REMARK:
#SAMPLE:4
#SAMPLE MASS /mg:7.42
#MATERIAL:
#REFERENCE:
#REFERENCE MASS /mg:0
#TYPE OF CRUCIBLE:DSC/TG pan Al2O3
#SAMPLE CRUCIBLE MASS /mg:0
#REFERENCE CRUCIBLE MASS /mg:0
#DSC RANGE /V:5000
#TG RANGE /mg:5000
#TAU-R:---
#CORR. CODE:020
#EXO:+1
#RANGE:35C/7,5(K/min)/920�C
#SEGMENT:S1/1
#SEG. 1:35�C/7,5(K/min)/920�C

##Temp./�C;Time/min;DSC/(uV/mg);Sensit./(uV/mW)
34.14896;0.5;3.60141e-34;1.0
34.59436;1.0;4.08884e-34;1.0
35.68375;1.5;5.575e-34;1.0
37.32905;2.0;8.89374e-34;1.0
39.42311;2.5;1.60826e-33;1.0
41.82416;3.0;3.1631e-33;1.0
44.48642;3.5;6.67251e-33;1.0
47.36371;4.0;1.48878e-32;1.0
50.40853;4.5;3.46426e-32;1.0
53.59856;5.0;8.34858e-32;1.0
56.91062;5.5;2.06905e-31;1.0
60.33416;6.0;5.25491e-31;1.0
63.83709;6.5;1.35513e-30;1.0
67.40722;7.0;3.53513e-30;1.0
71.01816;7.5;9.26047e-30;1.0
74.673;8.0;2.43734e-29;1.0
78.36113;8.5;6.42596e-29;1.0
82.0722;9.0;1.69218e-28;1.0
85.82376;9.5;4.47042e-28;1.0
89.60155;10.0;1.1802e-27;1.0
93.40258;10.5;3.11079e-27;1.0
97.22127;11.0;8.17376e-27;1.0
101.0636;11.5;2.14394e-26;1.0
104.918;12.0;5.59663e-26;1.0
108.783;12.5;1.45327e-25;1.0
112.642;13.0;3.74e-25;1.0
116.508;13.5;9.56226e-25;1.0
120.368;14.0;2.42258e-24;1.0
124.229;14.5;6.09203e-24;1.0
128.1;15.0;1.52316e-23;1.0
131.969;15.5;3.77728e-23;1.0
135.851;16.0;9.32168e-23;1.0
139.739;16.5;2.28571e-22;1.0
143.637;17.0;5.57184e-22;1.0
147.54;17.5;1.34934e-21;1.0
151.447;18.0;3.24336e-21;1.0
155.351;18.5;7.73095e-21;1.0
159.254;19.0;1.82736e-20;1.0
163.1588;19.5;4.28682e-20;1.0
167.059;20.0;9.96535e-20;1.0
170.9538;20.5;2.29594e-19;1.0
174.8622;21.0;5.2623e-19;1.0
178.753;21.5;1.1922e-18;1.0
182.6578;22.0;2.68684e-18;1.0
186.561;22.5;6.00533e-18;1.0
190.467;23.0;1.33251e-17;1.0
194.37;23.5;2.93074e-17;1.0
198.27;24.0;6.39137e-17;1.0
202.169;24.5;1.38242e-16;1.0
206.063;25.0;2.96373e-16;1.0
209.955;25.5;6.29956e-16;1.0
213.846;26.0;1.32836e-15;1.0
217.731;26.5;2.77571e-15;1.0
221.614;27.0;5.75239e-15;1.0
225.496;27.5;1.18247e-14;1.0
229.384;28.0;2.41388e-14;1.0
233.268;28.5;4.88523e-14;1.0
237.151;29.0;9.80751e-14;1.0
241.031;29.5;1.95244e-13;1.0
244.91;30.0;3.85551e-13;1.0
248.785;30.5;7.54868e-13;1.0
252.667;31.0;1.46789e-12;1.0
256.535;31.5;2.82571e-12;1.0
260.406;32.0;5.39918e-12;1.0
264.2732;32.5;1.0229e-11;1.0
268.144;33.0;1.92405e-11;1.0
272.016;33.5;3.59065e-11;1.0
275.882;34.0;6.64365e-11;1.0
279.747;34.5;1.21931e-10;1.0
283.612;35.0;2.22021e-10;1.0
287.475;35.5;4.00977e-10;1.0
291.334;36.0;7.1816e-10;1.0
295.187;36.5;1.27521e-09;1.0
299.038;37.0;2.24583e-09;1.0
302.89;37.5;3.92491e-09;1.0
306.742;38.0;6.8062e-09;1.0
310.596;38.5;1.17142e-08;1.0
314.448;39.0;2.00017e-08;1.0
318.302;39.5;3.38908e-08;1.0
322.149;40.0;5.69317e-08;1.0
325.994;40.5;9.48695e-08;1.0
329.836;41.0;1.56798e-07;1.0
333.676;41.5;2.57097e-07;1.0
337.513;42.0;4.18144e-07;1.0
341.344;42.5;6.74233e-07;1.0
345.166;43.0;1.07782e-06;1.0
348.9924;43.5;1.71061e-06;1.0
352.815;44.0;2.69292e-06;1.0
356.633;44.5;4.2044e-06;1.0
360.4502;45.0;6.51427e-06;1.0
364.264;45.5;1.00124e-05;1.0
368.076;46.0;1.52665e-05;1.0
371.885;46.5;2.30967e-05;1.0
375.692;47.0;3.46697e-05;1.0
379.505;47.5;5.16786e-05;1.0
383.318;48.0;7.64398e-05;1.0
387.127;48.5;0.000112169;1.0
390.937;49.0;0.000163365;1.0
394.738;49.5;0.000235907;1.0
398.538;50.0;0.000338061;1.0
402.337;50.5;0.000480736;1.0
406.133;51.0;0.000678319;1.0
409.932;51.5;0.000950102;1.0
413.734;52.0;0.00132102;1.0
417.53;52.5;0.00182203;1.0
421.327;53.0;0.00249436;1.0
425.122;53.5;0.00338815;1.0
428.909;54.0;0.00456513;1.0
432.696;54.5;0.00610457;1.0
436.484;55.0;0.00810212;1.0
440.271;55.5;0.0106729;1.0
444.066;56.0;0.0139605;1.0
447.854;56.5;0.0181146;1.0
451.637;57.0;0.0233216;1.0
455.424;57.5;0.029807;1.0
459.212;58.0;0.0378118;1.0
462.995;58.5;0.0475931;1.0
466.78;59.0;0.0594642;1.0
470.554;59.5;0.0736924;1.0
474.329;60.0;0.0906452;1.0
478.106;60.5;0.110683;1.0
481.877;61.0;0.134104;1.0
485.652;61.5;0.161291;1.0
489.424;62.0;0.192524;1.0
493.193;62.5;0.228064;1.0
496.965;63.0;0.26819;1.0
500.744;63.5;0.313121;1.0
504.524;64.0;0.362857;1.0
508.303;64.5;0.417332;1.0
512.088;65.0;0.476488;1.0
515.875;65.5;0.539985;1.0
519.665;66.0;0.607421;1.0
523.463;66.5;0.67827;1.0
527.268;67.0;0.751817;1.0
531.111;67.5;0.827784;1.0
535.001;68.0;0.90532;1.0
538.928;68.5;0.982994;1.0
542.743;69.0;1.0566;1.0
546.55;69.5;1.12693;1.0
550.383;70.0;1.19325;1.0
554.184;70.5;1.25329;1.0
557.935;71.0;1.30575;1.0
561.663;71.5;1.35013;1.0
565.37;72.0;1.38569;1.0
569.063;72.5;1.41188;1.0
572.754;73.0;1.42828;1.0
576.457;73.5;1.43458;1.0
580.161;74.0;1.43056;1.0
583.862;74.5;1.41632;1.0
587.572;75.0;1.3921;1.0
591.287;75.5;1.35838;1.0
595.011;76.0;1.31579;1.0
598.7338;76.5;1.2653;1.0
602.462;77.0;1.20784;1.0
606.19;77.5;1.1446;1.0
609.922;78.0;1.07671;1.0
613.6602;78.5;1.00533;1.0
617.394;79.0;0.931908;1.0
621.129;79.5;0.857529;1.0
624.865;80.0;0.783311;1.0
628.596;80.5;0.710362;1.0
632.325;81.0;0.63956;1.0
636.053;81.5;0.571655;1.0
639.777;82.0;0.507296;1.0
643.495;82.5;0.447008;1.0
647.214;83.0;0.391022;1.0
650.933;83.5;0.339584;1.0
654.65;84.0;0.292794;1.0
658.368;84.5;0.250604;1.0
662.089;85.0;0.212923;1.0
665.812;85.5;0.179576;1.0
669.526;86.0;0.150423;1.0
673.235;86.5;0.125125;1.0
676.932;87.0;0.103394;1.0
680.621;87.5;0.0848611;1.0
684.301;88.0;0.0691932;1.0
687.975;88.5;0.0560353;1.0
691.6386;89.0;0.0450881;1.0
695.298;89.5;0.0360334;1.0
698.957;90.0;0.028597;1.0
702.6104;90.5;0.0225438;1.0
706.277;91.0;0.017632;1.0
709.947;91.5;0.0136906;1.0
713.632;92.0;0.0105429;1.0
717.331;92.5;0.00805359;1.0
721.039;93.0;0.00610372;1.0
724.755;93.5;0.00458973;1.0
728.468;94.0;0.00342724;1.0
732.1838;94.5;0.00254001;1.0
735.899;95.0;0.00186903;1.0
739.613;95.5;0.00136551;1.0
743.327;96.0;0.000990388;1.0
747.039;96.5;0.000713281;1.0
750.748;97.0;0.000510141;1.0
754.452;97.5;0.000362401;1.0
758.164;98.0;0.000255393;1.0
761.881;98.5;0.000178607;1.0
765.603;99.0;0.000123932;1.0
769.328;99.5;8.53535e-05;1.0
773.047;100.0;5.8387e-05;1.0
776.767;100.5;3.96505e-05;1.0
780.486;101.0;2.6732e-05;1.0
784.203;101.5;1.78978e-05;1.0
787.921;102.0;1.18946e-05;1.0
791.638;102.5;7.8486e-06;1.0
795.3552;103.0;5.14113e-06;1.0
799.075;103.5;3.34236e-06;1.0
802.799;104.0;2.15621e-06;1.0
806.516;104.5;1.38199e-06;1.0
810.234;105.0;8.79308e-07;1.0
813.949;105.5;5.55579e-07;1.0
817.668;106.0;3.48352e-07;1.0
821.39;106.5;2.16731e-07;1.0
825.108;107.0;1.3394e-07;1.0
828.833;107.5;8.21078e-08;1.0
832.557;108.0;4.99703e-08;1.0
836.283;108.5;3.01818e-08;1.0
840.01;109.0;1.8097e-08;1.0
843.739;109.5;1.07688e-08;1.0
847.464;110.0;6.36443e-09;1.0
851.174;110.5;3.74232e-09;1.0
854.889;111.0;2.18294e-09;1.0
858.605;111.5;1.26403e-09;1.0
862.3222;112.0;7.26538e-10;1.0
866.0378;112.5;4.14664e-10;1.0
869.751;113.0;2.35024e-10;1.0
873.463;113.5;1.32292e-10;1.0
877.17;114.0;7.39848e-11;1.0
880.875;114.5;4.10893e-11;1.0
884.583;115.0;2.26423e-11;1.0
888.291;115.5;1.23895e-11;1.0
891.993;116.0;6.73645e-12;1.0
895.693;116.5;3.63824e-12;1.0
899.391;117.0;1.95137e-12;1.0
903.082;117.5;1.04031e-12;1.0