File: src/data/kinetics/multipeaks/q10/peak_3.txt
#EXPORTTYPE:DATA SINGLE
#FTYPE:ANSI
#IDENTITY:005922
#DECIMAL:POINT
#SEPARATOR:SEMICOLON
#MTYPE:DSC
#PROJECT:
#TEMPCAL:TCALZERO.TCX
#SENSITIVITY:SENSZERO.EXX
#LABORATORY:13
#REMARK:
#SAMPLE:2
#SAMPLE MASS /mg:7.28
#REFERENCE:
#REFERENCE MASS /mg:0
#TYPE OF CRUCIBLE:DSC/TG pan Al2O3
#SAMPLE CRUCIBLE MASS /mg:0
#REFERENCE CRUCIBLE MASS /mg:0
#DSC RANGE /�V:5000
#TG RANGE /mg:5000
#TAU-R:---
#CORR. CODE:020
#EXO:+1
#RANGE:35�C/00:00/35�C/10,0(K/min)/920�C/
#SEGMENT:S1-2/2
#SEG. 1:35�C/00:15/35�C
#SEG. 2:35�C/10,0(K/min)/920�C

##Temp./�C;Time/min;DSC/(uV/mg);Sensit./(uV/mW);Segment
33.98564;0.25;3.26e-322;1.0;1
34.03218;0.75;3.6e-322;1.0;1
34.06923;1.25;3.9e-322;1.0;1
34.09324;1.75;4.1e-322;1.0;1
34.12312;2.25;4.4e-322;1.0;1
34.14771;2.75;4.64e-322;1.0;1
34.15806;3.25;4.74e-322;1.0;1
34.16376;3.75;4.8e-322;1.0;1
34.177;4.25;4.94e-322;1.0;1
34.18659;4.75;5.04e-322;1.0;1
34.19218;5.25;5.1e-322;1.0;1
34.19318;5.75;5.1e-322;1.0;1
34.19906;6.25;5.2e-322;1.0;1
34.19976;6.75;5.2e-322;1.0;1
34.20388;7.25;5.24e-322;1.0;1
34.20453;7.75;5.24e-322;1.0;1
34.202;8.25;5.2e-322;1.0;1
34.20118;8.75;5.2e-322;1.0;1
34.20265;9.25;5.2e-322;1.0;1
34.20324;9.75;5.24e-322;1.0;1
34.20876;10.25;5.3e-322;1.0;1
34.20641;10.75;5.24e-322;1.0;1
34.20765;11.25;5.3e-322;1.0;1
34.20853;11.75;5.3e-322;1.0;1
34.20988;12.25;5.3e-322;1.0;1
34.20865;12.75;5.3e-322;1.0;1
34.20865;13.25;5.3e-322;1.0;1
34.21424;13.75;5.34e-322;1.0;1
34.21053;14.25;5.3e-322;1.0;1
34.209;14.75;5.3e-322;1.0;1
34.21049;15.25;5.3e-322;1.0;2
34.4492;15.75;8.84e-322;1.0;2
35.4671;16.25;7.925e-321;1.0;2
37.34251;16.75;4.45504e-319;1.0;2
39.90639;17.25;1.07983e-316;1.0;2
42.97527;17.75;7.51186e-314;1.0;2
46.42406;18.25;1.13418e-310;1.0;2
50.19397;18.75;3.24383e-307;1.0;2
54.22524;19.25;1.53325e-303;1.0;2
58.4711;19.75;1.07599e-299;1.0;2
62.89915;20.25;1.03958e-295;1.0;2
67.4673;20.75;1.25883e-291;1.0;2
72.14683;21.25;1.79113e-287;1.0;2
76.90669;21.75;2.79863e-283;1.0;2
81.75552;22.25;4.86841e-279;1.0;2
86.67746;22.75;9.09863e-275;1.0;2
91.68109;23.25;1.85182e-270;1.0;2
96.73827;23.75;3.86939e-266;1.0;2
101.844;24.25;8.2032e-262;1.0;2
106.979;24.75;1.69495e-257;1.0;2
112.126;25.25;3.29723e-253;1.0;2
117.277;25.75;5.95085e-249;1.0;2
122.435;26.25;1.00063e-244;1.0;2
127.605;26.75;1.58322e-240;1.0;2
132.809;27.25;2.44962e-236;1.0;2
138.029;27.75;3.58722e-232;1.0;2
143.2681;28.25;4.99646e-228;1.0;2
148.522;28.75;6.5518e-224;1.0;2
153.785;29.25;8.01681e-220;1.0;2
159.044;29.75;8.919e-216;1.0;2
164.299;30.25;9.02695e-212;1.0;2
169.547;30.75;8.29085e-208;1.0;2
174.8;31.25;7.03114e-204;1.0;2
180.05;31.75;5.44776e-200;1.0;2
185.301;32.25;3.87658e-196;1.0;2
190.5591;32.75;2.55833e-192;1.0;2
195.817;33.25;1.5487e-188;1.0;2
201.073;33.75;8.5645e-185;1.0;2
206.33;34.25;4.34881e-181;1.0;2
211.578;34.75;1.9955e-177;1.0;2
216.827;35.25;8.41607e-174;1.0;2
222.074;35.75;3.2452e-170;1.0;2
227.314;36.25;1.13615e-166;1.0;2
232.555;36.75;3.65271e-163;1.0;2
237.791;37.25;1.06827e-159;1.0;2
243.019;37.75;2.83396e-156;1.0;2
248.239;38.25;6.81933e-153;1.0;2
253.459;38.75;1.50637e-149;1.0;2
258.677;39.25;3.04541e-146;1.0;2
263.892;39.75;5.6231e-143;1.0;2
269.1;40.25;9.44876e-140;1.0;2
274.306;40.75;1.45326e-136;1.0;2
279.505;41.25;2.03614e-133;1.0;2
284.701;41.75;2.60607e-130;1.0;2
289.889;42.25;3.02999e-127;1.0;2
295.076;42.75;3.23632e-124;1.0;2
300.255;43.25;3.14445e-121;1.0;2
305.438;43.75;2.81956e-118;1.0;2
310.612;44.25;2.2991e-115;1.0;2
315.785;44.75;1.7221e-112;1.0;2
320.95;45.25;1.17238e-109;1.0;2
326.108;45.75;7.27961e-107;1.0;2
331.2577;46.25;4.11977e-104;1.0;2
336.403;46.75;2.13302e-101;1.0;2
341.5496;47.25;1.01751e-98;1.0;2
346.695;47.75;4.46059e-96;1.0;2
351.833;48.25;1.78394e-93;1.0;2
356.966;48.75;6.53333e-91;1.0;2
362.093;49.25;2.18735e-88;1.0;2
367.218;49.75;6.72363e-86;1.0;2
372.336;50.25;1.88956e-83;1.0;2
377.455;50.75;4.89631e-81;1.0;2
382.5729;51.25;1.16756e-78;1.0;2
387.685;51.75;2.54716e-76;1.0;2
392.799;52.25;5.13525e-74;1.0;2
397.901;52.75;9.40535e-72;1.0;2
402.999;53.25;1.58239e-69;1.0;2
408.097;53.75;2.45382e-67;1.0;2
413.188;54.25;3.48442e-65;1.0;2
418.2771;54.75;4.55206e-63;1.0;2
423.368;55.25;5.49162e-61;1.0;2
428.453;55.75;6.07411e-59;1.0;2
433.535;56.25;6.1785e-57;1.0;2
438.611;56.75;5.76073e-55;1.0;2
443.681;57.25;4.92965e-53;1.0;2
448.75;57.75;3.89003e-51;1.0;2
453.818;58.25;2.82717e-49;1.0;2
458.884;58.75;1.89281e-47;1.0;2
463.949;59.25;1.16823e-45;1.0;2
469.003;59.75;6.59844e-44;1.0;2
474.059;60.25;3.44157e-42;1.0;2
479.109;60.75;1.6504e-40;1.0;2
484.1589;61.25;7.30368e-39;1.0;2
489.207;61.75;2.97964e-37;1.0;2
494.248;62.25;1.1163e-35;1.0;2
499.294;62.75;3.87368e-34;1.0;2
504.348;63.25;1.24844e-32;1.0;2
509.414;63.75;3.74154e-31;1.0;2
514.481;64.25;1.03527e-29;1.0;2
519.558;64.75;2.65939e-28;1.0;2
524.637;65.25;6.31111e-27;1.0;2
529.719;65.75;1.38283e-25;1.0;2
534.819;66.25;2.82429e-24;1.0;2
540.301;66.75;6.60071e-23;1.0;2
545.883;67.25;1.48242e-21;1.0;2
551.053;67.75;2.42562e-20;1.0;2
556.044;68.25;3.32744e-19;1.0;2
560.9793;68.75;4.10501e-18;1.0;2
565.888;69.25;4.63148e-17;1.0;2
570.794;69.75;4.83701e-16;1.0;2
575.705;70.25;4.696e-15;1.0;2
580.618;70.75;4.22915e-14;1.0;2
585.54;71.25;3.5443e-13;1.0;2
590.47;71.75;2.76239e-12;1.0;2
595.411;72.25;2.00365e-11;1.0;2
600.366;72.75;1.35269e-10;1.0;2
605.318;73.25;8.44665e-10;1.0;2
610.269;73.75;4.88208e-09;1.0;2
615.234;74.25;2.6249e-08;1.0;2
620.198;74.75;1.30594e-07;1.0;2
625.172;75.25;6.03088e-07;1.0;2
630.145;75.75;2.57613e-06;1.0;2
635.12;76.25;1.01884e-05;1.0;2
640.0961;76.75;3.72836e-05;1.0;2
645.073;77.25;0.000126282;1.0;2
650.051;77.75;0.000395746;1.0;2
655.0239;78.25;0.00114625;1.0;2
659.994;78.75;0.00307049;1.0;2
664.953;79.25;0.00759558;1.0;2
669.913;79.75;0.0173974;1.0;2
674.873;80.25;0.0368855;1.0;2
679.8299;80.75;0.0723616;1.0;2
684.783;81.25;0.131363;1.0;2
689.732;81.75;0.220706;1.0;2
694.679;82.25;0.343272;1.0;2
699.622;82.75;0.494346;1.0;2
704.56;83.25;0.659136;1.0;2
709.502;83.75;0.814202;1.0;2
714.4421;84.25;0.931448;1.0;2
719.3678;84.75;0.986932;1.0;2
724.29;85.25;0.969057;1.0;2
729.251;85.75;0.880887;1.0;2
734.207;86.25;0.741325;1.0;2
739.14;86.75;0.578353;1.0;2
744.053;87.25;0.418639;1.0;2
748.954;87.75;0.281219;1.0;2
753.854;88.25;0.175198;1.0;2
758.766;88.75;0.101064;1.0;2
763.697;89.25;0.053919;1.0;2
768.649;89.75;0.0265619;1.0;2
773.611;90.25;0.0120979;1.0;2
778.574;90.75;0.00509868;1.0;2
783.539;91.25;0.0019879;1.0;2
788.504;91.75;0.000717444;1.0;2
793.464;92.25;0.000239934;1.0;2
798.417;92.75;7.43955e-05;1.0;2
803.361;93.25;2.1403e-05;1.0;2
808.311;93.75;5.69483e-06;1.0;2
813.258;94.25;1.40402e-06;1.0;2
818.21;94.75;3.20105e-07;1.0;2
823.164;95.25;6.75172e-08;1.0;2
828.121;95.75;1.31735e-08;1.0;2
833.079;96.25;2.3791e-09;1.0;2
838.036;96.75;3.97689e-10;1.0;2
842.984;97.25;6.17831e-11;1.0;2
847.935;97.75;8.87347e-12;1.0;2
852.884;98.25;1.18141e-12;1.0;2
857.833;98.75;1.4567e-13;1.0;2
862.777;99.25;1.66616e-14;1.0;2
867.722;99.75;1.76476e-15;1.0;2
872.666;100.25;1.73111e-16;1.0;2
877.622;100.75;1.56437e-17;1.0;2
882.575;101.25;1.30998e-18;1.0;2
887.528;101.75;1.01569e-19;1.0;2
892.48;102.25;7.2976e-21;1.0;2
897.43;102.75;4.86101e-22;1.0;2
902.373;103.25;3.00814e-23;1.0;2