File: src/data/kinetics/multipeaks/q10/peak_1.txt
#EXPORTTYPE:DATA SINGLE
#FTYPE:ANSI
#IDENTITY:005922
#DECIMAL:POINT
#SEPARATOR:SEMICOLON
#MTYPE:DSC
#PROJECT:
#TEMPCAL:TCALZERO.TCX
#SENSITIVITY:SENSZERO.EXX
#LABORATORY:13
#REMARK:
#SAMPLE:2
#SAMPLE MASS /mg:7.28
#REFERENCE:
#REFERENCE MASS /mg:0
#TYPE OF CRUCIBLE:DSC/TG pan Al2O3
#SAMPLE CRUCIBLE MASS /mg:0
#REFERENCE CRUCIBLE MASS /mg:0
#DSC RANGE /�V:5000
#TG RANGE /mg:5000
#TAU-R:---
#CORR. CODE:020
#EXO:+1
#RANGE:35�C/00:00/35�C/10,0(K/min)/920�C/
#SEGMENT:S1-2/2
#SEG. 1:35�C/00:15/35�C
#SEG. 2:35�C/10,0(K/min)/920�C

##Temp./�C;Time/min;DSC/(uV/mg);Sensit./(uV/mW);Segment
33.98564;0.25;2.96009e-23;1.0;1
34.03218;0.75;2.98592e-23;1.0;1
34.06923;1.25;3.00664e-23;1.0;1
34.09324;1.75;3.02015e-23;1.0;1
34.12312;2.25;3.03704e-23;1.0;1
34.14771;2.75;3.05101e-23;1.0;1
34.15806;3.25;3.05691e-23;1.0;1
34.16376;3.75;3.06016e-23;1.0;1
34.177;4.25;3.06773e-23;1.0;1
34.18659;4.75;3.07323e-23;1.0;1
34.19218;5.25;3.07644e-23;1.0;1
34.19318;5.75;3.07701e-23;1.0;1
34.19906;6.25;3.08039e-23;1.0;1
34.19976;6.75;3.08079e-23;1.0;1
34.20388;7.25;3.08316e-23;1.0;1
34.20453;7.75;3.08354e-23;1.0;1
34.202;8.25;3.08208e-23;1.0;1
34.20118;8.75;3.08161e-23;1.0;1
34.20265;9.25;3.08246e-23;1.0;1
34.20324;9.75;3.08279e-23;1.0;1
34.20876;10.25;3.08597e-23;1.0;1
34.20641;10.75;3.08462e-23;1.0;1
34.20765;11.25;3.08533e-23;1.0;1
34.20853;11.75;3.08584e-23;1.0;1
34.20988;12.25;3.08662e-23;1.0;1
34.20865;12.75;3.08591e-23;1.0;1
34.20865;13.25;3.08591e-23;1.0;1
34.21424;13.75;3.08913e-23;1.0;1
34.21053;14.25;3.08699e-23;1.0;1
34.209;14.75;3.08611e-23;1.0;1
34.21049;15.25;3.08697e-23;1.0;2
34.4492;15.75;3.22757e-23;1.0;2
35.4671;16.25;3.90182e-23;1.0;2
37.34251;16.75;5.52936e-23;1.0;2
39.90639;17.25;8.88881e-23;1.0;2
42.97527;17.75;1.56449e-22;1.0;2
46.42406;18.25;2.94222e-22;1.0;2
50.19397;18.75;5.84188e-22;1.0;2
54.22524;19.25;1.21007e-21;1.0;2
58.4711;19.75;2.5904e-21;1.0;2
62.89915;20.25;5.6929e-21;1.0;2
67.4673;20.75;1.27395e-20;1.0;2
72.14683;21.25;2.88654e-20;1.0;2
76.90669;21.75;6.58349e-20;1.0;2
81.75552;22.25;1.51309e-19;1.0;2
86.67746;22.75;3.49341e-19;1.0;2
91.68109;23.25;8.11111e-19;1.0;2
96.73827;23.75;1.88431e-18;1.0;2
101.844;24.25;4.37533e-18;1.0;2
106.979;24.75;1.01195e-17;1.0;2
112.126;25.25;2.32447e-17;1.0;2
117.277;25.75;5.29616e-17;1.0;2
122.435;26.25;1.19736e-16;1.0;2
127.605;26.75;2.68824e-16;1.0;2
132.809;27.25;6.01287e-16;1.0;2
138.029;27.75;1.33619e-15;1.0;2
143.2681;28.25;2.9512e-15;1.0;2
148.522;28.75;6.47282e-15;1.0;2
153.785;29.25;1.40873e-14;1.0;2
159.044;29.75;3.03579e-14;1.0;2
164.299;30.25;6.47803e-14;1.0;2
169.547;30.75;1.36855e-13;1.0;2
174.8;31.25;2.8664e-13;1.0;2
180.05;31.75;5.94702e-13;1.0;2
185.301;32.25;1.22274e-12;1.0;2
190.5591;32.75;2.49333e-12;1.0;2
195.817;33.25;5.03791e-12;1.0;2
201.073;33.75;1.00833e-11;1.0;2
206.33;34.25;1.99993e-11;1.0;2
211.578;34.75;3.92585e-11;1.0;2
216.827;35.25;7.63747e-11;1.0;2
222.074;35.75;1.4719e-10;1.0;2
227.314;36.25;2.80858e-10;1.0;2
232.555;36.75;5.31084e-10;1.0;2
237.791;37.25;9.94457e-10;1.0;2
243.019;37.75;1.84358e-09;1.0;2
248.239;38.25;3.38373e-09;1.0;2
253.459;38.75;6.15453e-09;1.0;2
258.677;39.25;1.10907e-08;1.0;2
263.892;39.75;1.97977e-08;1.0;2
269.1;40.25;3.49987e-08;1.0;2
274.306;40.75;6.13001e-08;1.0;2
279.505;41.25;1.06338e-07;1.0;2
284.701;41.75;1.82739e-07;1.0;2
289.889;42.25;3.1096e-07;1.0;2
295.076;42.75;5.24424e-07;1.0;2
300.255;43.25;8.75882e-07;1.0;2
305.438;43.75;1.45032e-06;1.0;2
310.612;44.25;2.37827e-06;1.0;2
315.785;44.75;3.86515e-06;1.0;2
320.95;45.25;6.22077e-06;1.0;2
326.108;45.75;9.91769e-06;1.0;2
331.2577;46.25;1.5662e-05;1.0;2
336.403;46.75;2.45064e-05;1.0;2
341.5496;47.25;3.80124e-05;1.0;2
346.695;47.75;5.84394e-05;1.0;2
351.833;48.25;8.90021e-05;1.0;2
356.966;48.75;0.000134316;1.0;2
362.093;49.25;0.000200836;1.0;2
367.218;49.75;0.000297628;1.0;2
372.336;50.25;0.000437021;1.0;2
377.455;50.75;0.00063618;1.0;2
382.5729;51.25;0.000918016;1.0;2
387.685;51.75;0.00131264;1.0;2
392.799;52.25;0.00186104;1.0;2
397.901;52.75;0.00261337;1.0;2
402.999;53.25;0.00363745;1.0;2
408.097;53.75;0.0050193;1.0;2
413.188;54.25;0.00686375;1.0;2
418.2771;54.75;0.00930427;1.0;2
423.368;55.25;0.0125057;1.0;2
428.453;55.75;0.016659;1.0;2
433.535;56.25;0.0219983;1.0;2
438.611;56.75;0.0287904;1.0;2
443.681;57.25;0.0373476;1.0;2
448.75;57.75;0.048035;1.0;2
453.818;58.25;0.0612496;1.0;2
458.884;58.75;0.0774294;1.0;2
463.949;59.25;0.0970475;1.0;2
469.003;59.75;0.120551;1.0;2
474.059;60.25;0.148485;1.0;2
479.109;60.75;0.181308;1.0;2
484.1589;61.25;0.219517;1.0;2
489.207;61.75;0.263516;1.0;2
494.248;62.25;0.313588;1.0;2
499.294;62.75;0.37009;1.0;2
504.348;63.25;0.433207;1.0;2
509.414;63.75;0.502963;1.0;2
514.481;64.25;0.579008;1.0;2
519.558;64.75;0.661051;1.0;2
524.637;65.25;0.748329;1.0;2
529.719;65.75;0.839931;1.0;2
534.819;66.25;0.935035;1.0;2
540.301;66.75;1.03923;1.0;2
545.883;67.25;1.14543;1.0;2
551.053;67.75;1.24193;1.0;2
556.044;68.25;1.33153;1.0;2
560.9793;68.75;1.41491;1.0;2
565.888;69.25;1.491;1.0;2
570.794;69.75;1.55859;1.0;2
575.705;70.25;1.61633;1.0;2
580.618;70.75;1.66283;1.0;2
585.54;71.25;1.69704;1.0;2
590.47;71.75;1.71809;1.0;2
595.411;72.25;1.72541;1.0;2
600.366;72.75;1.7187;1.0;2
605.318;73.25;1.69813;1.0;2
610.269;73.75;1.66418;1.0;2
615.234;74.25;1.61753;1.0;2
620.198;74.75;1.55935;1.0;2
625.172;75.25;1.49086;1.0;2
630.145;75.75;1.41372;1.0;2
635.12;76.25;1.32956;1.0;2
640.0961;76.75;1.24015;1.0;2
645.073;77.25;1.14723;1.0;2
650.051;77.75;1.05257;1.0;2
655.0239;78.25;0.957887;1.0;2
659.994;78.75;0.864629;1.0;2
664.953;79.25;0.774276;1.0;2
669.913;79.75;0.687695;1.0;2
674.873;80.25;0.605821;1.0;2
679.8299;80.75;0.529392;1.0;2
684.783;81.25;0.458892;1.0;2
689.732;81.75;0.394597;1.0;2
694.679;82.25;0.336594;1.0;2
699.622;82.75;0.284816;1.0;2
704.56;83.25;0.239101;1.0;2
709.502;83.75;0.199071;1.0;2
714.4421;84.25;0.164419;1.0;2
719.3678;84.75;0.134779;1.0;2
724.29;85.25;0.109612;1.0;2
729.251;85.75;0.0882769;1.0;2
734.207;86.25;0.0705284;1.0;2
739.14;86.75;0.0559533;1.0;2
744.053;87.25;0.0440766;1.0;2
748.954;87.75;0.0344647;1.0;2
753.854;88.25;0.0267355;1.0;2
758.766;88.75;0.0205603;1.0;2
763.697;89.25;0.0156699;1.0;2
768.649;89.75;0.0118312;1.0;2
773.611;90.25;0.00885581;1.0;2
778.574;90.75;0.00657398;1.0;2
783.539;91.25;0.00483952;1.0;2
788.504;91.75;0.00353378;1.0;2
793.464;92.25;0.00256017;1.0;2
798.417;92.75;0.0018405;1.0;2
803.361;93.25;0.00131313;1.0;2
808.311;93.75;0.000928971;1.0;2
813.258;94.25;0.000651975;1.0;2
818.21;94.75;0.000453713;1.0;2
823.164;95.25;0.000313117;1.0;2
828.121;95.75;0.000214291;1.0;2
833.079;96.25;0.000145458;1.0;2
838.036;96.75;9.79282e-05;1.0;2
842.984;97.25;6.54479e-05;1.0;2
847.935;97.75;4.33708e-05;1.0;2
852.884;98.25;2.85145e-05;1.0;2
857.833;98.75;1.85956e-05;1.0;2
862.777;99.25;1.20329e-05;1.0;2
867.722;99.75;7.72315e-06;1.0;2
872.666;100.25;4.91688e-06;1.0;2
877.622;100.75;3.10184e-06;1.0;2
882.575;101.25;1.94124e-06;1.0;2
887.528;101.75;1.20503e-06;1.0;2
892.48;102.25;7.42075e-07;1.0;2
897.43;102.75;4.53375e-07;1.0;2
902.373;103.25;2.74907e-07;1.0;2