File: src/data/kinetics/multipeaks/q10/peak_2.txt
#EXPORTTYPE:DATA SINGLE
#FTYPE:ANSI
#IDENTITY:005922
#DECIMAL:POINT
#SEPARATOR:SEMICOLON
#MTYPE:DSC
#PROJECT:
#TEMPCAL:TCALZERO.TCX
#SENSITIVITY:SENSZERO.EXX
#LABORATORY:13
#REMARK:
#SAMPLE:2
#SAMPLE MASS /mg:7.28
#REFERENCE:
#REFERENCE MASS /mg:0
#TYPE OF CRUCIBLE:DSC/TG pan Al2O3
#SAMPLE CRUCIBLE MASS /mg:0
#REFERENCE CRUCIBLE MASS /mg:0
#DSC RANGE /�V:5000
#TG RANGE /mg:5000
#TAU-R:---
#CORR. CODE:020
#EXO:+1
#RANGE:35�C/00:00/35�C/10,0(K/min)/920�C/
#SEGMENT:S1-2/2
#SEG. 1:35�C/00:15/35�C
#SEG. 2:35�C/10,0(K/min)/920�C

##Temp./�C;Time/min;DSC/(uV/mg);Sensit./(uV/mW);Segment
33.98564;0.25;2.52906e-91;1.0;1
34.03218;0.75;2.60654e-91;1.0;1
34.06923;1.25;2.66992e-91;1.0;1
34.09324;1.75;2.7118e-91;1.0;1
34.12312;2.25;2.76485e-91;1.0;1
34.14771;2.75;2.80927e-91;1.0;1
34.15806;3.25;2.82819e-91;1.0;1
34.16376;3.75;2.83866e-91;1.0;1
34.177;4.25;2.86313e-91;1.0;1
34.18659;4.75;2.88098e-91;1.0;1
34.19218;5.25;2.89144e-91;1.0;1
34.19318;5.75;2.89331e-91;1.0;1
34.19906;6.25;2.90436e-91;1.0;1
34.19976;6.75;2.90568e-91;1.0;1
34.20388;7.25;2.91345e-91;1.0;1
34.20453;7.75;2.91468e-91;1.0;1
34.202;8.25;2.9099e-91;1.0;1
34.20118;8.75;2.90836e-91;1.0;1
34.20265;9.25;2.91113e-91;1.0;1
34.20324;9.75;2.91224e-91;1.0;1
34.20876;10.25;2.92268e-91;1.0;1
34.20641;10.75;2.91823e-91;1.0;1
34.20765;11.25;2.92058e-91;1.0;1
34.20853;11.75;2.92225e-91;1.0;1
34.20988;12.25;2.9248e-91;1.0;1
34.20865;12.75;2.92247e-91;1.0;1
34.20865;13.25;2.92247e-91;1.0;1
34.21424;13.75;2.93308e-91;1.0;1
34.21053;14.25;2.92604e-91;1.0;1
34.209;14.75;2.92314e-91;1.0;1
34.21049;15.25;2.92596e-91;1.0;2
34.4492;15.75;3.41552e-91;1.0;2
35.4671;16.25;6.60202e-91;1.0;2
37.34251;16.75;2.21734e-90;1.0;2
39.90639;17.25;1.15519e-89;1.0;2
42.97527;17.75;8.25819e-89;1.0;2
46.42406;18.25;7.44652e-88;1.0;2
50.19397;18.75;8.12833e-87;1.0;2
54.22524;19.25;1.03072e-85;1.0;2
58.4711;19.75;1.47002e-84;1.0;2
62.89915;20.25;2.3048e-83;1.0;2
67.4673;20.75;3.86172e-82;1.0;2
72.14683;21.25;6.78136e-81;1.0;2
76.90669;21.75;1.22292e-79;1.0;2
81.75552;22.25;2.2739e-78;1.0;2
86.67746;22.75;4.31295e-77;1.0;2
91.68109;23.25;8.37787e-76;1.0;2
96.73827;23.75;1.63742e-74;1.0;2
101.844;24.25;3.20849e-73;1.0;2
106.979;24.75;6.22759e-72;1.0;2
112.126;25.25;1.18503e-70;1.0;2
117.277;25.75;2.20099e-69;1.0;2
122.435;26.25;3.99513e-68;1.0;2
127.605;26.75;7.10797e-67;1.0;2
132.809;27.25;1.2538e-65;1.0;2
138.029;27.75;2.17144e-64;1.0;2
143.2681;28.25;3.69769e-63;1.0;2
148.522;28.75;6.17226e-62;1.0;2
153.785;29.25;1.00726e-60;1.0;2
159.044;29.75;1.59469e-59;1.0;2
164.299;30.25;2.44975e-58;1.0;2
169.547;30.75;3.6489e-57;1.0;2
174.8;31.25;5.29696e-56;1.0;2
180.05;31.75;7.47059e-55;1.0;2
185.301;32.25;1.02522e-53;1.0;2
190.5591;32.75;1.37299e-52;1.0;2
195.817;33.25;1.78851e-51;1.0;2
201.073;33.75;2.26342e-50;1.0;2
206.33;34.25;2.78703e-49;1.0;2
211.578;34.75;3.32342e-48;1.0;2
216.827;35.25;3.85713e-47;1.0;2
222.074;35.75;4.35012e-46;1.0;2
227.314;36.25;4.75791e-45;1.0;2
232.555;36.75;5.06352e-44;1.0;2
237.791;37.25;5.22892e-43;1.0;2
243.019;37.75;5.23525e-42;1.0;2
248.239;38.25;5.08193e-41;1.0;2
253.459;38.75;4.79963e-40;1.0;2
258.677;39.25;4.40648e-39;1.0;2
263.892;39.75;3.93023e-38;1.0;2
269.1;40.25;3.40204e-37;1.0;2
274.306;40.75;2.86276e-36;1.0;2
279.505;41.25;2.3386e-35;1.0;2
284.701;41.75;1.85613e-34;1.0;2
289.889;42.25;1.42903e-33;1.0;2
295.076;42.75;1.0707e-32;1.0;2
300.255;43.25;7.78495e-32;1.0;2
305.438;43.75;5.51587e-31;1.0;2
310.612;44.25;3.79228e-30;1.0;2
315.785;44.75;2.53733e-29;1.0;2
320.95;45.25;1.64711e-28;1.0;2
326.108;45.75;1.03844e-27;1.0;2
331.2577;46.25;6.35721e-27;1.0;2
336.403;46.75;3.78315e-26;1.0;2
341.5496;47.25;2.19289e-25;1.0;2
346.695;47.75;1.23719e-24;1.0;2
351.833;48.25;6.77983e-24;1.0;2
356.966;48.75;3.61266e-23;1.0;2
362.093;49.25;1.87093e-22;1.0;2
367.218;49.75;9.42854e-22;1.0;2
372.336;50.25;4.61822e-21;1.0;2
377.455;50.75;2.20387e-20;1.0;2
382.5729;51.25;1.02409e-19;1.0;2
387.685;51.75;4.62624e-19;1.0;2
392.799;52.25;2.03739e-18;1.0;2
397.901;52.75;8.7058e-18;1.0;2
402.999;53.25;3.62061e-17;1.0;2
408.097;53.75;1.46691e-16;1.0;2
413.188;54.25;5.77948e-16;1.0;2
418.2771;54.75;2.21721e-15;1.0;2
423.368;55.25;8.29092e-15;1.0;2
428.453;55.75;3.01593e-14;1.0;2
433.535;56.25;1.06814e-13;1.0;2
438.611;56.75;3.67997e-13;1.0;2
443.681;57.25;1.23373e-12;1.0;2
448.75;57.75;4.03012e-12;1.0;2
453.818;58.25;1.28232e-11;1.0;2
458.884;58.75;3.97448e-11;1.0;2
463.949;59.25;1.2002e-10;1.0;2
469.003;59.75;3.52433e-10;1.0;2
474.059;60.25;1.00877e-09;1.0;2
479.109;60.75;2.8113e-09;1.0;2
484.1589;61.25;7.63566e-09;1.0;2
489.207;61.75;2.02065e-08;1.0;2
494.248;62.25;5.20487e-08;1.0;2
499.294;62.75;1.30791e-07;1.0;2
504.348;63.25;3.20841e-07;1.0;2
509.414;63.75;7.68553e-07;1.0;2
514.481;64.25;1.7944e-06;1.0;2
519.558;64.75;4.08917e-06;1.0;2
524.637;65.25;9.08385e-06;1.0;2
529.719;65.75;1.96678e-05;1.0;2
534.819;66.25;4.1602e-05;1.0;2
540.301;66.75;9.03968e-05;1.0;2
545.883;67.25;0.000193109;1.0;2
551.053;67.75;0.000379315;1.0;2
556.044;68.25;0.000709532;1.0;2
560.9793;68.75;0.00128589;1.0;2
565.888;69.25;0.00226719;1.0;2
570.794;69.75;0.00390014;1.0;2
575.705;70.25;0.00655247;1.0;2
580.618;70.75;0.0107459;1.0;2
585.54;71.25;0.0172147;1.0;2
590.47;71.75;0.0269335;1.0;2
595.411;72.25;0.0411593;1.0;2
600.366;72.75;0.0614346;1.0;2
605.318;73.25;0.0894424;1.0;2
610.269;73.75;0.127037;1.0;2
615.234;74.25;0.176192;1.0;2
620.198;74.75;0.238369;1.0;2
625.172;75.25;0.31475;1.0;2
630.145;75.75;0.405361;1.0;2
635.12;76.25;0.509276;1.0;2
640.0961;76.75;0.62409;1.0;2
645.073;77.25;0.746008;1.0;2
650.051;77.75;0.869791;1.0;2
655.0239;78.25;0.989024;1.0;2
659.994;78.75;1.0969;1.0;2
664.953;79.25;1.18649;1.0;2
669.913;79.75;1.25203;1.0;2
674.873;80.25;1.28888;1.0;2
679.8299;80.75;1.29436;1.0;2
684.783;81.25;1.26815;1.0;2
689.732;81.75;1.21221;1.0;2
694.679;82.25;1.13058;1.0;2
699.622;82.75;1.02886;1.0;2
704.56;83.25;0.913672;1.0;2
709.502;83.75;0.791603;1.0;2
714.4421;84.25;0.66925;1.0;2
719.3678;84.75;0.5524;1.0;2
724.29;85.25;0.44503;1.0;2
729.251;85.75;0.349193;1.0;2
734.207;86.25;0.267354;1.0;2
739.14;86.75;0.199986;1.0;2
744.053;87.25;0.14617;1.0;2
748.954;87.75;0.104362;1.0;2
753.854;88.25;0.0727362;1.0;2
758.766;88.75;0.0494316;1.0;2
763.697;89.25;0.0327389;1.0;2
768.649;89.75;0.0211156;1.0;2
773.611;90.25;0.0132759;1.0;2
778.574;90.75;0.0081412;1.0;2
783.539;91.25;0.00486885;1.0;2
788.504;91.75;0.00284071;1.0;2
793.464;92.25;0.00161778;1.0;2
798.417;92.75;0.0008995;1.0;2
803.361;93.25;0.000488438;1.0;2
808.311;93.75;0.000258614;1.0;2
813.258;94.25;0.000133636;1.0;2
818.21;94.75;6.73321e-05;1.0;2
823.164;95.25;3.30855e-05;1.0;2
828.121;95.75;1.58548e-05;1.0;2
833.079;96.25;7.41161e-06;1.0;2
838.036;96.75;3.37981e-06;1.0;2
842.984;97.25;1.50614e-06;1.0;2
847.935;97.75;6.5438e-07;1.0;2
852.884;98.25;2.77521e-07;1.0;2
857.833;98.75;1.14837e-07;1.0;2
862.777;99.25;4.63961e-08;1.0;2
867.722;99.75;1.82885e-08;1.0;2
872.666;100.25;7.03384e-09;1.0;2
877.622;100.75;2.63383e-09;1.0;2
882.575;101.25;9.6252e-10;1.0;2
887.528;101.75;3.43177e-10;1.0;2
892.48;102.25;1.19413e-10;1.0;2
897.43;102.75;4.05595e-11;1.0;2
902.373;103.25;1.34583e-11;1.0;2