File: src/data/kinetics/multipeaks/q7t5/peak_2.txt
#EXPORTTYPE:DATA SINGLE
#FTYPE:ANSI
#DECIMAL:POINT
#SEPARATOR:SEMICOLON
#MTYPE:DSC
#PROJECT:
#CORR. FILE:005925_bline_Al2O3_900_7.5_N2_20_air_20.ngb-bs1
#TEMPCAL:TCALZERO.TCX
#SENSITIVITY:SENSZERO.EXX
#LABORATORY:13
#OPERATOR:
#REMARK:
#SAMPLE:4
#SAMPLE MASS /mg:7.42
#MATERIAL:
#REFERENCE:
#REFERENCE MASS /mg:0
#TYPE OF CRUCIBLE:DSC/TG pan Al2O3
#SAMPLE CRUCIBLE MASS /mg:0
#REFERENCE CRUCIBLE MASS /mg:0
#DSC RANGE /V:5000
#TG RANGE /mg:5000
#TAU-R:---
#CORR. CODE:020
#EXO:+1
#RANGE:35C/7,5(K/min)/920�C
#SEGMENT:S1/1
#SEG. 1:35�C/7,5(K/min)/920�C

##Temp./�C;Time/min;DSC/(uV/mg);Sensit./(uV/mW)
34.14896;0.5;4.86226e-122;1.0
34.59436;1.0;7.31203e-122;1.0
35.68375;1.5;1.98107e-121;1.0
37.32905;2.0;8.89576e-121;1.0
39.42311;2.5;5.98168e-120;1.0
41.82416;3.0;5.27564e-119;1.0
44.48642;3.5;5.83696e-118;1.0
47.36371;4.0;7.74845e-117;1.0
50.40853;4.5;1.17964e-115;1.0
53.59856;5.0;2.01463e-114;1.0
56.91062;5.5;3.77364e-113;1.0
60.33416;6.0;7.6672e-112;1.0
63.83709;6.5;1.64032e-110;1.0
67.40722;7.0;3.65178e-109;1.0
71.01816;7.5;8.26089e-108;1.0
74.673;8.0;1.90263e-106;1.0
78.36113;8.5;4.41833e-105;1.0
82.0722;9.0;1.02495e-103;1.0
85.82376;9.5;2.40941e-102;1.0
89.60155;10.0;5.66799e-101;1.0
93.40258;10.5;1.33042e-99;1.0
97.22127;11.0;3.10045e-98;1.0
101.0636;11.5;7.20652e-97;1.0
104.918;12.0;1.65431e-95;1.0
108.783;12.5;3.74453e-94;1.0
112.642;13.0;8.25735e-93;1.0
116.508;13.5;1.78819e-91;1.0
120.368;14.0;3.77042e-90;1.0
124.229;14.5;7.78382e-89;1.0
128.1;15.0;1.5821e-87;1.0
131.969;15.5;3.14097e-86;1.0
135.851;16.0;6.15752e-85;1.0
139.739;16.5;1.18594e-83;1.0
143.637;17.0;2.24817e-82;1.0
147.54;17.5;4.18511e-81;1.0
151.447;18.0;7.62779e-80;1.0
155.351;18.5;1.35714e-78;1.0
159.254;19.0;2.35691e-77;1.0
163.1588;19.5;4.00663e-76;1.0
167.059;20.0;6.6326e-75;1.0
170.9538;20.5;1.06972e-73;1.0
174.8622;21.0;1.70213e-72;1.0
178.753;21.5;2.61544e-71;1.0
182.6578;22.0;3.96418e-70;1.0
186.561;22.5;5.86698e-69;1.0
190.467;23.0;8.50724e-68;1.0
194.37;23.5;1.20242e-66;1.0
198.27;24.0;1.65829e-65;1.0
202.169;24.5;2.23356e-64;1.0
206.063;25.0;2.93186e-63;1.0
209.955;25.5;3.75397e-62;1.0
213.846;26.0;4.69809e-61;1.0
217.731;26.5;5.72537e-60;1.0
221.614;27.0;6.81332e-59;1.0
225.496;27.5;7.92072e-58;1.0
229.384;28.0;9.03201e-57;1.0
233.268;28.5;1.00435e-55;1.0
237.151;29.0;1.09135e-54;1.0
241.031;29.5;1.15736e-53;1.0
244.91;30.0;1.19915e-52;1.0
248.785;30.5;1.21198e-51;1.0
252.667;31.0;1.202e-50;1.0
256.535;31.5;1.15664e-49;1.0
260.406;32.0;1.08982e-48;1.0
264.2732;32.5;1.00179e-47;1.0
268.144;33.0;9.02513e-47;1.0
272.016;33.5;7.94917e-46;1.0
275.882;34.0;6.82896e-45;1.0
279.747;34.5;5.73102e-44;1.0
283.612;35.0;4.70215e-43;1.0
287.475;35.5;3.76789e-42;1.0
291.334;36.0;2.94706e-41;1.0
295.187;36.5;2.24773e-40;1.0
299.038;37.0;1.67415e-39;1.0
302.89;37.5;1.21986e-38;1.0
306.742;38.0;8.69309e-38;1.0
310.596;38.5;6.06424e-37;1.0
314.448;39.0;4.13494e-36;1.0
318.302;39.5;2.75828e-35;1.0
322.149;40.0;1.79406e-34;1.0
325.994;40.5;1.14009e-33;1.0
329.836;41.0;7.07494e-33;1.0
333.676;41.5;4.29085e-32;1.0
337.513;42.0;2.54187e-31;1.0
341.344;42.5;1.46804e-30;1.0
345.166;43.0;8.26564e-30;1.0
348.9924;43.5;4.56059e-29;1.0
352.815;44.0;2.45761e-28;1.0
356.633;44.5;1.29271e-27;1.0
360.4502;45.0;6.65289e-27;1.0
364.264;45.5;3.34497e-26;1.0
368.076;46.0;1.64329e-25;1.0
371.885;46.5;7.89334e-25;1.0
375.692;47.0;3.7065e-24;1.0
379.505;47.5;1.70701e-23;1.0
383.318;48.0;7.68944e-23;1.0
387.127;48.5;3.38475e-22;1.0
390.937;49.0;1.45835e-21;1.0
394.738;49.5;6.12628e-21;1.0
398.538;50.0;2.51757e-20;1.0
402.337;50.5;1.01193e-19;1.0
406.133;51.0;3.97688e-19;1.0
409.932;51.5;1.53081e-18;1.0
413.734;52.0;5.7713e-18;1.0
417.53;52.5;2.12522e-17;1.0
421.327;53.0;7.66152e-17;1.0
425.122;53.5;2.70002e-16;1.0
428.909;54.0;9.29126e-16;1.0
432.696;54.5;3.12867e-15;1.0
436.484;55.0;1.03121e-14;1.0
440.271;55.5;3.32691e-14;1.0
444.066;56.0;1.05259e-13;1.0
447.854;56.5;3.25228e-13;1.0
451.637;57.0;9.82242e-13;1.0
455.424;57.5;2.90625e-12;1.0
459.212;58.0;8.41767e-12;1.0
462.995;58.5;2.38311e-11;1.0
466.78;59.0;6.60756e-11;1.0
470.554;59.5;1.78774e-10;1.0
474.329;60.0;4.73476e-10;1.0
478.106;60.5;1.22829e-09;1.0
481.877;61.0;3.11472e-09;1.0
485.652;61.5;7.73591e-09;1.0
489.424;62.0;1.87975e-08;1.0
493.193;62.5;4.46794e-08;1.0
496.965;63.0;1.04026e-07;1.0
500.744;63.5;2.37463e-07;1.0
504.524;64.0;5.30635e-07;1.0
508.303;64.5;1.16033e-06;1.0
512.088;65.0;2.48617e-06;1.0
515.875;65.5;5.21558e-06;1.0
519.665;66.0;1.0716e-05;1.0
523.463;66.5;2.15736e-05;1.0
527.268;67.0;4.25591e-05;1.0
531.111;67.5;8.26868e-05;1.0
535.001;68.0;0.000158342;1.0
538.928;68.5;0.000298126;1.0
542.743;69.0;0.00053916;1.0
546.55;69.5;0.000952963;1.0
550.383;70.0;0.00165403;1.0
554.184;70.5;0.00279622;1.0
557.935;71.0;0.00459571;1.0
561.663;71.5;0.00737351;1.0
565.37;72.0;0.0115578;1.0
569.063;72.5;0.0177194;1.0
572.754;73.0;0.0266087;1.0
576.457;73.5;0.0391949;1.0
580.161;74.0;0.0565639;1.0
583.862;74.5;0.0799397;1.0
587.572;75.0;0.110764;1.0
591.287;75.5;0.150399;1.0
595.011;76.0;0.200157;1.0
598.7338;76.5;0.260853;1.0
602.462;77.0;0.333071;1.0
606.19;77.5;0.416493;1.0
609.922;78.0;0.510147;1.0
613.6602;78.5;0.612104;1.0
617.394;79.0;0.719066;1.0
621.129;79.5;0.827224;1.0
624.865;80.0;0.93194;1.0
628.596;80.5;1.02805;1.0
632.325;81.0;1.11054;1.0
636.053;81.5;1.17482;1.0
639.777;82.0;1.21713;1.0
643.495;82.5;1.23496;1.0
647.214;83.0;1.22729;1.0
650.933;83.5;1.1946;1.0
654.65;84.0;1.13891;1.0
658.368;84.5;1.06347;1.0
662.089;85.0;0.972563;1.0
665.812;85.5;0.871052;1.0
669.526;86.0;0.764338;1.0
673.235;86.5;0.657089;1.0
676.932;87.0;0.55365;1.0
680.621;87.5;0.457203;1.0
684.301;88.0;0.37014;1.0
687.975;88.5;0.293725;1.0
691.6386;89.0;0.228582;1.0
695.298;89.5;0.174388;1.0
698.957;90.0;0.130404;1.0
702.6104;90.5;0.095615;1.0
706.277;91.0;0.068631;1.0
709.947;91.5;0.0482641;1.0
713.632;92.0;0.033205;1.0
717.331;92.5;0.0223519;1.0
721.039;93.0;0.0147244;1.0
724.755;93.5;0.0094921;1.0
728.468;94.0;0.00599601;1.0
732.1838;94.5;0.00370828;1.0
735.899;95.0;0.0022467;1.0
739.613;95.5;0.00133349;1.0
743.327;96.0;0.000775171;1.0
747.039;96.5;0.000441538;1.0
750.748;97.0;0.000246466;1.0
754.452;97.5;0.000134878;1.0
758.164;98.0;7.22017e-05;1.0
761.881;98.5;3.78291e-05;1.0
765.603;99.0;1.93923e-05;1.0
769.328;99.5;9.73269e-06;1.0
773.047;100.0;4.78854e-06;1.0
776.767;100.5;2.30748e-06;1.0
780.486;101.0;1.08908e-06;1.0
784.203;101.5;5.03769e-07;1.0
787.921;102.0;2.28172e-07;1.0
791.638;102.5;1.01243e-07;1.0
795.3552;103.0;4.39956e-08;1.0
799.075;103.5;1.87155e-08;1.0
802.799;104.0;7.79049e-09;1.0
806.516;104.5;3.18106e-09;1.0
810.234;105.0;1.27207e-09;1.0
813.949;105.5;4.9852e-10;1.0
817.668;106.0;1.91194e-10;1.0
821.39;106.5;7.17465e-11;1.0
825.108;107.0;2.64e-11;1.0
828.833;107.5;9.498e-12;1.0
832.557;108.0;3.34695e-12;1.0
836.283;108.5;1.15437e-12;1.0
840.01;109.0;3.89917e-13;1.0
843.739;109.5;1.28903e-13;1.0
847.464;110.0;4.17747e-14;1.0
851.174;110.5;1.33222e-14;1.0
854.889;111.0;4.15452e-15;1.0
858.605;111.5;1.26878e-15;1.0
862.3222;112.0;3.79402e-16;1.0
866.0378;112.5;1.11172e-16;1.0
869.751;113.0;3.19278e-17;1.0
873.463;113.5;8.9883e-18;1.0
877.17;114.0;2.48278e-18;1.0
880.875;114.5;6.72176e-19;1.0
884.583;115.0;1.78029e-19;1.0
888.291;115.5;4.62058e-20;1.0
891.993;116.0;1.17705e-20;1.0
895.693;116.5;2.94051e-21;1.0
899.391;117.0;7.20072e-22;1.0
903.082;117.5;1.73191e-22;1.0