File: src/data/kinetics/multipeaks/q7t5/peak_3.txt
#EXPORTTYPE:DATA SINGLE
#FTYPE:ANSI
#DECIMAL:POINT
#SEPARATOR:SEMICOLON
#MTYPE:DSC
#PROJECT:
#CORR. FILE:005925_bline_Al2O3_900_7.5_N2_20_air_20.ngb-bs1
#TEMPCAL:TCALZERO.TCX
#SENSITIVITY:SENSZERO.EXX
#LABORATORY:13
#OPERATOR:
#REMARK:
#SAMPLE:4
#SAMPLE MASS /mg:7.42
#MATERIAL:
#REFERENCE:
#REFERENCE MASS /mg:0
#TYPE OF CRUCIBLE:DSC/TG pan Al2O3
#SAMPLE CRUCIBLE MASS /mg:0
#REFERENCE CRUCIBLE MASS /mg:0
#DSC RANGE /V:5000
#TG RANGE /mg:5000
#TAU-R:---
#CORR. CODE:020
#EXO:+1
#RANGE:35C/7,5(K/min)/920�C
#SEGMENT:S1/1
#SEG. 1:35�C/7,5(K/min)/920�C

##Temp./�C;Time/min;DSC/(uV/mg);Sensit./(uV/mW)
34.14896;0.5;0.0;1.0
34.59436;1.0;0.0;1.0
35.68375;1.5;0.0;1.0
37.32905;2.0;0.0;1.0
39.42311;2.5;0.0;1.0
41.82416;3.0;0.0;1.0
44.48642;3.5;0.0;1.0
47.36371;4.0;0.0;1.0
50.40853;4.5;0.0;1.0
53.59856;5.0;0.0;1.0
56.91062;5.5;0.0;1.0
60.33416;6.0;0.0;1.0
63.83709;6.5;0.0;1.0
67.40722;7.0;0.0;1.0
71.01816;7.5;0.0;1.0
74.673;8.0;0.0;1.0
78.36113;8.5;0.0;1.0
82.0722;9.0;0.0;1.0
85.82376;9.5;0.0;1.0
89.60155;10.0;0.0;1.0
93.40258;10.5;0.0;1.0
97.22127;11.0;0.0;1.0
101.0636;11.5;0.0;1.0
104.918;12.0;0.0;1.0
108.783;12.5;0.0;1.0
112.642;13.0;0.0;1.0
116.508;13.5;0.0;1.0
120.368;14.0;0.0;1.0
124.229;14.5;0.0;1.0
128.1;15.0;0.0;1.0
131.969;15.5;5.0e-324;1.0
135.851;16.0;1.12044e-319;1.0
139.739;16.5;3.97761e-315;1.0
143.637;17.0;1.34179e-310;1.0
147.54;17.5;4.26636e-306;1.0
151.447;18.0;1.26518e-301;1.0
155.351;18.5;3.46274e-297;1.0
159.254;19.0;8.74432e-293;1.0
163.1588;19.5;2.05782e-288;1.0
167.059;20.0;4.43072e-284;1.0
170.9538;20.5;8.74346e-280;1.0
174.8622;21.0;1.65356e-275;1.0
178.753;21.5;2.77708e-271;1.0
182.6578;22.0;4.46706e-267;1.0
186.561;22.5;6.63816e-263;1.0
190.467;23.0;9.22306e-259;1.0
194.37;23.5;1.17646e-254;1.0
198.27;24.0;1.38277e-250;1.0
202.169;24.5;1.50239e-246;1.0
206.063;25.0;1.49754e-242;1.0
209.955;25.5;1.37384e-238;1.0
213.846;26.0;1.16842e-234;1.0
217.731;26.5;9.08915e-231;1.0
221.614;27.0;6.53249e-227;1.0
225.496;27.5;4.34409e-223;1.0
229.384;28.0;2.71213e-219;1.0
233.268;28.5;1.55678e-215;1.0
237.151;29.0;8.27665e-212;1.0
241.031;29.5;4.05723e-208;1.0
244.91;30.0;1.84089e-204;1.0
248.785;30.5;7.68762e-201;1.0
252.667;31.0;3.01848e-197;1.0
256.535;31.5;1.06988e-193;1.0
260.406;32.0;3.53806e-190;1.0
264.2732;32.5;1.07725e-186;1.0
268.144;33.0;3.07037e-183;1.0
272.016;33.5;8.11944e-180;1.0
275.882;34.0;1.97518e-176;1.0
279.747;34.5;4.44518e-173;1.0
283.612;35.0;9.28142e-170;1.0
287.475;35.5;1.79121e-166;1.0
291.334;36.0;3.18843e-163;1.0
295.187;36.5;5.21614e-160;1.0
299.038;37.0;7.88402e-157;1.0
302.89;37.5;1.10809e-153;1.0
306.742;38.0;1.44683e-150;1.0
310.596;38.5;1.76074e-147;1.0
314.448;39.0;1.98627e-144;1.0
318.302;39.5;2.08383e-141;1.0
322.149;40.0;2.00843e-138;1.0
325.994;40.5;1.79148e-135;1.0
329.836;41.0;1.47609e-132;1.0
333.676;41.5;1.12682e-129;1.0
337.513;42.0;7.95289e-127;1.0
341.344;42.5;5.15345e-124;1.0
345.166;43.0;3.06539e-121;1.0
348.9924;43.5;1.70609e-118;1.0
352.815;44.0;8.77506e-116;1.0
356.633;44.5;4.16181e-113;1.0
360.4502;45.0;1.8361e-110;1.0
364.264;45.5;7.49346e-108;1.0
368.076;46.0;2.83055e-105;1.0
371.885;46.5;9.92037e-103;1.0
375.692;47.0;3.22396e-100;1.0
379.505;47.5;9.83417e-98;1.0
383.318;48.0;2.78709e-95;1.0
387.127;48.5;7.31281e-93;1.0
390.937;49.0;1.78757e-90;1.0
394.738;49.5;4.01117e-88;1.0
398.538;50.0;8.36672e-86;1.0
402.337;50.5;1.62131e-83;1.0
406.133;51.0;2.91463e-81;1.0
409.932;51.5;4.89341e-79;1.0
413.734;52.0;7.67179e-77;1.0
417.53;52.5;1.11145e-74;1.0
421.327;53.0;1.50112e-72;1.0
425.122;53.5;1.87936e-70;1.0
428.909;54.0;2.17172e-68;1.0
432.696;54.5;2.33517e-66;1.0
436.484;55.0;2.33905e-64;1.0
440.271;55.5;2.18264e-62;1.0
444.066;56.0;1.9113e-60;1.0
447.854;56.5;1.54541e-58;1.0
451.637;57.0;1.15774e-56;1.0
455.424;57.5;8.10728e-55;1.0
459.212;58.0;5.29073e-53;1.0
462.995;58.5;3.19863e-51;1.0
466.78;59.0;1.80536e-49;1.0
470.554;59.5;9.37699e-48;1.0
474.329;60.0;4.53777e-46;1.0
478.106;60.5;2.05124e-44;1.0
481.877;61.0;8.59047e-43;1.0
485.652;61.5;3.35945e-41;1.0
489.424;62.0;1.22138e-39;1.0
493.193;62.5;4.12521e-38;1.0
496.965;63.0;1.30174e-36;1.0
500.744;63.5;3.85208e-35;1.0
504.524;64.0;1.06231e-33;1.0
508.303;64.5;2.72593e-32;1.0
512.088;65.0;6.54473e-31;1.0
515.875;65.5;1.46551e-29;1.0
519.665;66.0;3.06477e-28;1.0
523.463;66.5;5.99795e-27;1.0
527.268;67.0;1.09885e-25;1.0
531.111;67.5;1.92646e-24;1.0
535.001;68.0;3.24541e-23;1.0
538.928;68.5;5.20138e-22;1.0
542.743;69.0;7.15489e-21;1.0
546.55;69.5;9.10997e-20;1.0
550.383;70.0;1.09695e-18;1.0
554.184;70.5;1.2038e-17;1.0
557.935;71.0;1.19281e-16;1.0
561.663;71.5;1.08676e-15;1.0
565.37;72.0;9.13257e-15;1.0
569.063;72.5;7.11445e-14;1.0
572.754;73.0;5.17216e-13;1.0
576.457;73.5;3.53462e-12;1.0
580.161;74.0;2.25736e-11;1.0
583.862;74.5;1.34423e-10;1.0
587.572;75.0;7.50893e-10;1.0
591.287;75.5;3.92592e-09;1.0
595.011;76.0;1.92334e-08;1.0
598.7338;76.5;8.78754e-08;1.0
602.462;77.0;3.75534e-07;1.0
606.19;77.5;1.49746e-06;1.0
609.922;78.0;5.57888e-06;1.0
613.6602;78.5;1.94321e-05;1.0
617.394;79.0;6.30572e-05;1.0
621.129;79.5;0.000190919;1.0
624.865;80.0;0.000539365;1.0
628.596;80.5;0.00142017;1.0
632.325;81.0;0.00348663;1.0
636.053;81.5;0.0079842;1.0
639.777;82.0;0.0170509;1.0
643.495;82.5;0.0339472;1.0
647.214;83.0;0.0630986;1.0
650.933;83.5;0.10946;1.0
654.65;84.0;0.177227;1.0
658.368;84.5;0.267919;1.0
662.089;85.0;0.378125;1.0
665.812;85.5;0.498188;1.0
669.526;86.0;0.612317;1.0
673.235;86.5;0.702541;1.0
676.932;87.0;0.75261;1.0
680.621;87.5;0.753241;1.0
684.301;88.0;0.70465;1.0
687.975;88.5;0.616358;1.0
691.6386;89.0;0.50442;1.0
695.298;89.5;0.386243;1.0
698.957;90.0;0.276698;1.0
702.6104;90.5;0.185549;1.0
706.277;91.0;0.116215;1.0
709.947;91.5;0.0680446;1.0
713.632;92.0;0.0371511;1.0
717.331;92.5;0.0189106;1.0
721.039;93.0;0.00897442;1.0
724.755;93.5;0.00396971;1.0
728.468;94.0;0.0016406;1.0
732.1838;94.5;0.000632461;1.0
735.899;95.0;0.00022769;1.0
739.613;95.5;7.65526e-05;1.0
743.327;96.0;2.40251e-05;1.0
747.039;96.5;7.04507e-06;1.0
750.748;97.0;1.93092e-06;1.0
754.452;97.5;4.95147e-07;1.0
758.164;98.0;1.18189e-07;1.0
761.881;98.5;2.6292e-08;1.0
765.603;99.0;5.4462e-09;1.0
769.328;99.5;1.05198e-09;1.0
773.047;100.0;1.90075e-10;1.0
776.767;100.5;3.20549e-11;1.0
780.486;101.0;5.04623e-12;1.0
784.203;101.5;7.42689e-13;1.0
787.921;102.0;1.01963e-13;1.0
791.638;102.5;1.3074e-14;1.0
795.3552;103.0;1.56448e-15;1.0
799.075;103.5;1.74515e-16;1.0
802.799;104.0;1.81271e-17;1.0
806.516;104.5;1.76453e-18;1.0
810.234;105.0;1.60287e-19;1.0
813.949;105.5;1.36125e-20;1.0
817.668;106.0;1.07676e-21;1.0
821.39;106.5;7.92881e-23;1.0
825.108;107.0;5.46646e-24;1.0
828.833;107.5;3.50161e-25;1.0
832.557;108.0;2.09377e-26;1.0
836.283;108.5;1.1664e-27;1.0
840.01;109.0;6.06321e-29;1.0
843.739;109.5;2.93603e-30;1.0
847.464;110.0;1.33025e-31;1.0
851.174;110.5;5.69886e-33;1.0
854.889;111.0;2.26899e-34;1.0
858.605;111.5;8.4296e-36;1.0
862.3222;112.0;2.92088e-37;1.0
866.0378;112.5;9.45997e-39;1.0
869.751;113.0;2.86546e-40;1.0
873.463;113.5;8.12096e-42;1.0
877.17;114.0;2.15929e-43;1.0
880.875;114.5;5.37026e-45;1.0
884.583;115.0;1.2426e-46;1.0
888.291;115.5;2.68791e-48;1.0
891.993;116.0;5.46023e-50;1.0
895.693;116.5;1.03923e-51;1.0
899.391;117.0;1.8507e-53;1.0
903.082;117.5;3.10163e-55;1.0