File: src/data/kinetics/multipeaks/q7t5/peak_1.txt
#EXPORTTYPE:DATA SINGLE
#FTYPE:ANSI
#DECIMAL:POINT
#SEPARATOR:SEMICOLON
#MTYPE:DSC
#PROJECT:
#CORR. FILE:005925_bline_Al2O3_900_7.5_N2_20_air_20.ngb-bs1
#TEMPCAL:TCALZERO.TCX
#SENSITIVITY:SENSZERO.EXX
#LABORATORY:13
#OPERATOR:
#REMARK:
#SAMPLE:4
#SAMPLE MASS /mg:7.42
#MATERIAL:
#REFERENCE:
#REFERENCE MASS /mg:0
#TYPE OF CRUCIBLE:DSC/TG pan Al2O3
#SAMPLE CRUCIBLE MASS /mg:0
#REFERENCE CRUCIBLE MASS /mg:0
#DSC RANGE /V:5000
#TG RANGE /mg:5000
#TAU-R:---
#CORR. CODE:020
#EXO:+1
#RANGE:35C/7,5(K/min)/920�C
#SEGMENT:S1/1
#SEG. 1:35�C/7,5(K/min)/920�C

##Temp./�C;Time/min;DSC/(uV/mg);Sensit./(uV/mW)
34.14896;0.5;1.50215e-33;1.0
34.59436;1.0;1.70216e-33;1.0
35.68375;1.5;2.30989e-33;1.0
37.32905;2.0;3.65878e-33;1.0
39.42311;2.5;6.5566e-33;1.0
41.82416;3.0;1.27628e-32;1.0
44.48642;3.5;2.66171e-32;1.0
47.36371;4.0;5.86627e-32;1.0
50.40853;4.5;1.34746e-31;1.0
53.59856;5.0;3.20368e-31;1.0
56.91062;5.5;7.82968e-31;1.0
60.33416;6.0;1.96021e-30;1.0
63.83709;6.5;4.9816e-30;1.0
67.40722;7.0;1.28044e-29;1.0
71.01816;7.5;3.30456e-29;1.0
74.673;8.0;8.56804e-29;1.0
78.36113;8.5;2.22518e-28;1.0
82.0722;9.0;5.77206e-28;1.0
85.82376;9.5;1.50196e-27;1.0
89.60155;10.0;3.90555e-27;1.0
93.40258;10.5;1.01394e-26;1.0
97.22127;11.0;2.62415e-26;1.0
101.0636;11.5;6.77959e-26;1.0
104.918;12.0;1.74326e-25;1.0
108.783;12.5;4.4591e-25;1.0
112.642;13.0;1.13054e-24;1.0
116.508;13.5;2.84789e-24;1.0
120.368;14.0;7.10947e-24;1.0
124.229;14.5;1.76179e-23;1.0
128.1;15.0;4.34109e-23;1.0
131.969;15.5;1.06105e-22;1.0
135.851;16.0;2.58091e-22;1.0
139.739;16.5;6.23811e-22;1.0
143.637;17.0;1.49903e-21;1.0
147.54;17.5;3.57885e-21;1.0
151.447;18.0;8.48136e-21;1.0
155.351;18.5;1.99341e-20;1.0
159.254;19.0;4.64647e-20;1.0
163.1588;19.5;1.075e-19;1.0
167.059;20.0;2.46486e-19;1.0
170.9538;20.5;5.60187e-19;1.0
174.8622;21.0;1.2666e-18;1.0
178.753;21.5;2.83122e-18;1.0
182.6578;22.0;6.29578e-18;1.0
186.561;22.5;1.38858e-17;1.0
190.467;23.0;3.04064e-17;1.0
194.37;23.5;6.60057e-17;1.0
198.27;24.0;1.42087e-16;1.0
202.169;24.5;3.03386e-16;1.0
206.063;25.0;6.42154e-16;1.0
209.955;25.5;1.34772e-15;1.0
213.846;26.0;2.80633e-15;1.0
217.731;26.5;5.79132e-15;1.0
221.614;27.0;1.18543e-14;1.0
225.496;27.5;2.40705e-14;1.0
229.384;28.0;4.85414e-14;1.0
233.268;28.5;9.70573e-14;1.0
237.151;29.0;1.92526e-13;1.0
241.031;29.5;3.78742e-13;1.0
244.91;30.0;7.39133e-13;1.0
248.785;30.5;1.43032e-12;1.0
252.667;31.0;2.74922e-12;1.0
256.535;31.5;5.23186e-12;1.0
260.406;32.0;9.88338e-12;1.0
264.2732;32.5;1.85142e-11;1.0
268.144;33.0;3.44366e-11;1.0
272.016;33.5;6.35546e-11;1.0
275.882;34.0;1.16305e-10;1.0
279.747;34.5;2.11138e-10;1.0
283.612;35.0;3.80318e-10;1.0
287.475;35.5;6.79542e-10;1.0
291.334;36.0;1.20422e-09;1.0
295.187;36.5;2.11593e-09;1.0
299.038;37.0;3.68788e-09;1.0
302.89;37.5;6.37892e-09;1.0
306.742;38.0;1.09492e-08;1.0
310.596;38.5;1.86545e-08;1.0
314.448;39.0;3.1534e-08;1.0
318.302;39.5;5.29019e-08;1.0
322.149;40.0;8.79969e-08;1.0
325.994;40.5;1.45214e-07;1.0
329.836;41.0;2.37702e-07;1.0
333.676;41.5;3.86048e-07;1.0
337.513;42.0;6.21966e-07;1.0
341.344;42.5;9.93559e-07;1.0
345.166;43.0;1.5737e-06;1.0
348.9924;43.5;2.47487e-06;1.0
352.815;44.0;3.86097e-06;1.0
356.633;44.5;5.97435e-06;1.0
360.4502;45.0;9.17503e-06;1.0
364.264;45.5;1.3979e-05;1.0
368.076;46.0;2.1131e-05;1.0
371.885;46.5;3.16965e-05;1.0
375.692;47.0;4.71774e-05;1.0
379.505;47.5;6.9735e-05;1.0
383.318;48.0;0.000102296;1.0
387.127;48.5;0.000148884;1.0
390.937;49.0;0.000215086;1.0
394.738;49.5;0.00030812;1.0
398.538;50.0;0.000438067;1.0
402.337;50.5;0.000618098;1.0
406.133;51.0;0.000865429;1.0
409.932;51.5;0.00120296;1.0
413.734;52.0;0.00166001;1.0
417.53;52.5;0.0022726;1.0
421.327;53.0;0.00308837;1.0
425.122;53.5;0.00416464;1.0
428.909;54.0;0.00557131;1.0
432.696;54.5;0.00739754;1.0
436.484;55.0;0.00974985;1.0
440.271;55.5;0.0127553;1.0
444.066;56.0;0.0165709;1.0
447.854;56.5;0.0213578;1.0
451.637;57.0;0.0273157;1.0
455.424;57.5;0.0346844;1.0
459.212;58.0;0.0437164;1.0
462.995;58.5;0.0546769;1.0
466.78;59.0;0.0678884;1.0
470.554;59.5;0.0836161;1.0
474.329;60.0;0.10223;1.0
478.106;60.5;0.124084;1.0
481.877;61.0;0.149459;1.0
485.652;61.5;0.178719;1.0
489.424;62.0;0.212113;1.0
493.193;62.5;0.249862;1.0
496.965;63.0;0.292204;1.0
500.744;63.5;0.339304;1.0
504.524;64.0;0.391096;1.0
508.303;64.5;0.447445;1.0
512.088;65.0;0.508225;1.0
515.875;65.5;0.57302;1.0
519.665;66.0;0.641355;1.0
523.463;66.5;0.712635;1.0
527.268;67.0;0.786081;1.0
531.111;67.5;0.861355;1.0
535.001;68.0;0.937544;1.0
538.928;68.5;1.01318;1.0
542.743;69.0;1.08416;1.0
546.55;69.5;1.15125;1.0
550.383;70.0;1.21372;1.0
554.184;70.5;1.26943;1.0
557.935;71.0;1.31719;1.0
561.663;71.5;1.35658;1.0
565.37;72.0;1.38697;1.0
569.063;72.5;1.4079;1.0
572.754;73.0;1.41905;1.0
576.457;73.5;1.4202;1.0
580.161;74.0;1.41127;1.0
583.862;74.5;1.39247;1.0
587.572;75.0;1.3641;1.0
591.287;75.5;1.32673;1.0
595.011;76.0;1.28106;1.0
598.7338;76.5;1.22811;1.0
602.462;77.0;1.16881;1.0
606.19;77.5;1.10439;1.0
609.922;78.0;1.03594;1.0
613.6602;78.5;0.964612;1.0
617.394;79.0;0.891782;1.0
621.129;79.5;0.818496;1.0
624.865;80.0;0.745798;1.0
628.596;80.5;0.674722;1.0
632.325;81.0;0.606071;1.0
636.053;81.5;0.540519;1.0
639.777;82.0;0.478643;1.0
643.495;82.5;0.4209;1.0
647.214;83.0;0.367463;1.0
650.933;83.5;0.318529;1.0
654.65;84.0;0.27415;1.0
658.368;84.5;0.234249;1.0
662.089;85.0;0.198706;1.0
665.812;85.5;0.16733;1.0
669.526;86.0;0.139964;1.0
673.235;86.5;0.116267;1.0
676.932;87.0;0.0959543;1.0
680.621;87.5;0.0786626;1.0
684.301;88.0;0.0640697;1.0
687.975;88.5;0.0518344;1.0
691.6386;89.0;0.04167;1.0
695.298;89.5;0.0332742;1.0
698.957;90.0;0.0263877;1.0
702.6104;90.5;0.0207885;1.0
706.277;91.0;0.0162497;1.0
709.947;91.5;0.0126111;1.0
713.632;92.0;0.00970762;1.0
717.331;92.5;0.00741314;1.0
721.039;93.0;0.00561698;1.0
724.755;93.5;0.00422307;1.0
728.468;94.0;0.00315323;1.0
732.1838;94.5;0.00233697;1.0
735.899;95.0;0.00171981;1.0
739.613;95.5;0.00125673;1.0
743.327;96.0;0.000911743;1.0
747.039;96.5;0.000656879;1.0
750.748;97.0;0.000470012;1.0
754.452;97.5;0.000334072;1.0
758.164;98.0;0.000235575;1.0
761.881;98.5;0.000164864;1.0
765.603;99.0;0.000114487;1.0
769.328;99.5;7.89184e-05;1.0
773.047;100.0;5.40373e-05;1.0
776.767;100.5;3.67353e-05;1.0
780.486;101.0;2.47948e-05;1.0
784.203;101.5;1.66212e-05;1.0
787.921;102.0;1.10607e-05;1.0
791.638;102.5;7.30859e-06;1.0
795.3552;103.0;4.79452e-06;1.0
799.075;103.5;3.12193e-06;1.0
802.799;104.0;2.01736e-06;1.0
806.516;104.5;1.29525e-06;1.0
810.234;105.0;8.25631e-07;1.0
813.949;105.5;5.22665e-07;1.0
817.668;106.0;3.28372e-07;1.0
821.39;106.5;2.04729e-07;1.0
825.108;107.0;1.26798e-07;1.0
828.833;107.5;7.79063e-08;1.0
832.557;108.0;4.75251e-08;1.0
836.283;108.5;2.87751e-08;1.0
840.01;109.0;1.72972e-08;1.0
843.739;109.5;1.03199e-08;1.0
847.464;110.0;6.11562e-09;1.0
851.174;110.5;3.60602e-09;1.0
854.889;111.0;2.10948e-09;1.0
858.605;111.5;1.22511e-09;1.0
862.3222;112.0;7.0631e-10;1.0
866.0378;112.5;4.04381e-10;1.0
869.751;113.0;2.29933e-10;1.0
873.463;113.5;1.29853e-10;1.0
877.17;114.0;7.28668e-11;1.0
880.875;114.5;4.06087e-11;1.0
884.583;115.0;2.24571e-11;1.0
888.291;115.5;1.23329e-11;1.0
891.993;116.0;6.73066e-12;1.0
895.693;116.5;3.64895e-12;1.0
899.391;117.0;1.96473e-12;1.0
903.082;117.5;1.05159e-12;1.0