File: src/data/kinetics/q10/peak_1.txt
#EXPORTTYPE:DATA SINGLE
#FTYPE:ANSI
#IDENTITY:005922
#DECIMAL:POINT
#SEPARATOR:SEMICOLON
#MTYPE:DSC
#PROJECT:
#TEMPCAL:TCALZERO.TCX
#SENSITIVITY:SENSZERO.EXX
#LABORATORY:13
#REMARK:
#SAMPLE:2
#SAMPLE MASS /mg:7.28
#REFERENCE:
#REFERENCE MASS /mg:0
#TYPE OF CRUCIBLE:DSC/TG pan Al2O3
#SAMPLE CRUCIBLE MASS /mg:0
#REFERENCE CRUCIBLE MASS /mg:0
#DSC RANGE /�V:5000
#TG RANGE /mg:5000
#TAU-R:---
#CORR. CODE:020
#EXO:+1
#RANGE:35�C/00:00/35�C/10,0(K/min)/920�C/
#SEGMENT:S1-2/2
#SEG. 1:35�C/00:15/35�C
#SEG. 2:35�C/10,0(K/min)/920�C

##Temp./�C;Time/min;DSC/(uV/mg);Sensit./(uV/mW);Segment
33.98564;0.25;0.0;1.0;1
34.03218;0.75;0.0;1.0;1
34.06923;1.25;0.0;1.0;1
34.09324;1.75;0.0;1.0;1
34.12312;2.25;0.0;1.0;1
34.14771;2.75;0.0;1.0;1
34.15806;3.25;0.0;1.0;1
34.16376;3.75;0.0;1.0;1
34.177;4.25;0.0;1.0;1
34.18659;4.75;0.0;1.0;1
34.19218;5.25;0.0;1.0;1
34.19318;5.75;0.0;1.0;1
34.19906;6.25;0.0;1.0;1
34.19976;6.75;0.0;1.0;1
34.20388;7.25;0.0;1.0;1
34.20453;7.75;0.0;1.0;1
34.202;8.25;0.0;1.0;1
34.20118;8.75;0.0;1.0;1
34.20265;9.25;0.0;1.0;1
34.20324;9.75;0.0;1.0;1
34.20876;10.25;0.0;1.0;1
34.20641;10.75;0.0;1.0;1
34.20765;11.25;0.0;1.0;1
34.20853;11.75;0.0;1.0;1
34.20988;12.25;0.0;1.0;1
34.20865;12.75;0.0;1.0;1
34.20865;13.25;0.0;1.0;1
34.21424;13.75;0.0;1.0;1
34.21053;14.25;0.0;1.0;1
34.209;14.75;0.0;1.0;1
34.21049;15.25;0.0;1.0;2
34.4492;15.75;0.0;1.0;2
35.4671;16.25;0.0;1.0;2
37.34251;16.75;0.0;1.0;2
39.90639;17.25;0.0;1.0;2
42.97527;17.75;0.0;1.0;2
46.42406;18.25;0.0;1.0;2
50.19397;18.75;0.0;1.0;2
54.22524;19.25;0.0;1.0;2
58.4711;19.75;0.0;1.0;2
62.89915;20.25;0.0;1.0;2
67.4673;20.75;0.0;1.0;2
72.14683;21.25;1.3157e-320;1.0;2
76.90669;21.75;6.55435e-314;1.0;2
81.75552;22.25;3.68192e-307;1.0;2
86.67746;22.75;2.19824e-300;1.0;2
91.68109;23.25;1.42155e-293;1.0;2
96.73827;23.75;9.05029e-287;1.0;2
101.844;24.25;5.55824e-280;1.0;2
106.979;24.75;3.08743e-273;1.0;2
112.126;25.25;1.46843e-266;1.0;2
117.277;25.75;5.84323e-260;1.0;2
122.435;26.25;1.95767e-253;1.0;2
127.605;26.75;5.6055e-247;1.0;2
132.809;27.25;1.45419e-240;1.0;2
138.029;27.75;3.24808e-234;1.0;2
143.2681;28.25;6.28933e-228;1.0;2
148.522;28.75;1.03876e-221;1.0;2
153.785;29.25;1.44326e-215;1.0;2
159.044;29.75;1.62221e-209;1.0;2
164.299;30.25;1.47652e-203;1.0;2
169.547;30.75;1.08449e-197;1.0;2
174.8;31.25;6.59541e-192;1.0;2
180.05;31.75;3.26958e-186;1.0;2
185.301;32.25;1.33143e-180;1.0;2
190.5591;32.75;4.51673e-175;1.0;2
195.817;33.25;1.25612e-169;1.0;2
201.073;33.75;2.84709e-164;1.0;2
206.33;34.25;5.29788e-159;1.0;2
211.578;34.75;7.91361e-154;1.0;2
216.827;35.25;9.72059e-149;1.0;2
222.074;35.75;9.74618e-144;1.0;2
227.314;36.25;7.901e-139;1.0;2
232.555;36.75;5.26146e-134;1.0;2
237.791;37.25;2.84133e-129;1.0;2
243.019;37.75;1.23986e-124;1.0;2
248.239;38.25;4.37311e-120;1.0;2
253.459;38.75;1.26725e-115;1.0;2
258.677;39.25;3.00506e-111;1.0;2
263.892;39.75;5.81593e-107;1.0;2
269.1;40.25;9.146e-103;1.0;2
274.306;40.75;1.1777e-98;1.0;2
279.505;41.25;1.23438e-94;1.0;2
284.701;41.75;1.05715e-90;1.0;2
289.889;42.25;7.34757e-87;1.0;2
295.076;42.75;4.20421e-83;1.0;2
300.255;43.25;1.9568e-79;1.0;2
305.438;43.75;7.54174e-76;1.0;2
310.612;44.25;2.36451e-72;1.0;2
315.785;44.75;6.10548e-69;1.0;2
320.95;45.25;1.28249e-65;1.0;2
326.108;45.75;2.20145e-62;1.0;2
331.2577;46.25;3.08676e-59;1.0;2
336.403;46.75;3.55183e-56;1.0;2
341.5496;47.25;3.38111e-53;1.0;2
346.695;47.75;2.65512e-50;1.0;2
351.833;48.25;1.70672e-47;1.0;2
356.966;48.75;9.01998e-45;1.0;2
362.093;49.25;3.91355e-42;1.0;2
367.218;49.75;1.40064e-39;1.0;2
372.336;50.25;4.11832e-37;1.0;2
377.455;50.75;1.00354e-34;1.0;2
382.5729;51.25;2.02266e-32;1.0;2
387.685;51.75;3.35378e-30;1.0;2
392.799;52.25;4.61905e-28;1.0;2
397.901;52.75;5.20286e-26;1.0;2
402.999;53.25;4.84414e-24;1.0;2
408.097;53.75;3.73953e-22;1.0;2
413.188;54.25;2.38069e-20;1.0;2
418.2771;54.75;1.25519e-18;1.0;2
423.368;55.25;5.49751e-17;1.0;2
428.453;55.75;1.98916e-15;1.0;2
433.535;56.25;5.96176e-14;1.0;2
438.611;56.75;1.47703e-12;1.0;2
443.681;57.25;3.02905e-11;1.0;2
448.75;57.75;5.15966e-10;1.0;2
453.818;58.25;7.29504e-09;1.0;2
458.884;58.75;8.56338e-08;1.0;2
463.949;59.25;8.35034e-07;1.0;2
469.003;59.75;6.7399e-06;1.0;2
474.059;60.25;4.5258e-05;1.0;2
479.109;60.75;0.000252348;1.0;2
484.1589;61.25;0.00117052;1.0;2
489.207;61.75;0.00451537;1.0;2
494.248;62.25;0.0144715;1.0;2
499.294;62.75;0.0386447;1.0;2
504.348;63.25;0.0859947;1.0;2
509.414;63.75;0.159349;1.0;2
514.481;64.25;0.245406;1.0;2
519.558;64.75;0.314152;1.0;2
524.637;65.25;0.333932;1.0;2
529.719;65.75;0.294661;1.0;2
534.819;66.25;0.215509;1.0;2
540.301;66.75;0.124906;1.0;2
545.883;67.25;0.0573733;1.0;2
551.053;67.75;0.0228402;1.0;2
556.044;68.25;0.00781813;1.0;2
560.9793;68.75;0.00226973;1.0;2
565.888;69.25;0.000557242;1.0;2
570.794;69.75;0.000115114;1.0;2
575.705;70.25;1.99493e-05;1.0;2
580.618;70.75;2.90356e-06;1.0;2
585.54;71.25;3.53668e-07;1.0;2
590.47;71.75;3.60264e-08;1.0;2
595.411;72.25;3.06181e-09;1.0;2
600.366;72.75;2.16637e-10;1.0;2
605.318;73.25;1.28611e-11;1.0;2
610.269;73.75;6.40109e-13;1.0;2
615.234;74.25;2.6451e-14;1.0;2
620.198;74.75;9.15371e-16;1.0;2
625.172;75.25;2.63332e-17;1.0;2
630.145;75.75;6.3427e-19;1.0;2
635.12;76.25;1.27572e-20;1.0;2
640.0961;76.75;2.14595e-22;1.0;2
645.073;77.25;3.01516e-24;1.0;2
650.051;77.75;3.54213e-26;1.0;2
655.0239;78.25;3.49602e-28;1.0;2
659.994;78.75;2.89415e-30;1.0;2
664.953;79.25;2.02891e-32;1.0;2
669.913;79.75;1.18941e-34;1.0;2
674.873;80.25;5.83947e-37;1.0;2
679.8299;80.75;2.40909e-39;1.0;2
684.783;81.25;8.36076e-42;1.0;2
689.732;81.75;2.44251e-44;1.0;2
694.679;82.25;6.00391e-47;1.0;2
699.622;82.75;1.24104e-49;1.0;2
704.56;83.25;2.16644e-52;1.0;2
709.502;83.75;3.15398e-55;1.0;2
714.4421;84.25;3.86399e-58;1.0;2
719.3678;84.75;4.0489e-61;1.0;2
724.29;85.25;3.58092e-64;1.0;2
729.251;85.75;2.51036e-67;1.0;2
734.207;86.25;1.48299e-70;1.0;2
739.14;86.75;7.61388e-74;1.0;2
744.053;87.25;3.3871e-77;1.0;2
748.954;87.75;1.29128e-80;1.0;2
753.854;88.25;4.14443e-84;1.0;2
758.766;88.75;1.09429e-87;1.0;2
763.697;89.25;2.35652e-91;1.0;2
768.649;89.75;4.0918e-95;1.0;2
773.611;90.25;5.86221e-99;1.0;2
778.574;90.75;7.00999e-103;1.0;2
783.539;91.25;6.98447e-107;1.0;2
788.504;91.75;5.8349e-111;1.0;2
793.464;92.25;4.1228e-115;1.0;2
798.417;92.75;2.47122e-119;1.0;2
803.361;93.25;1.26181e-123;1.0;2
808.311;93.75;5.34779e-128;1.0;2
813.258;94.25;1.90865e-132;1.0;2
818.21;94.75;5.65571e-137;1.0;2
823.164;95.25;1.39647e-141;1.0;2
828.121;95.75;2.87297e-146;1.0;2
833.079;96.25;4.94573e-151;1.0;2
838.036;96.75;7.12422e-156;1.0;2
842.984;97.25;8.80073e-161;1.0;2
847.935;97.75;9.02407e-166;1.0;2
852.884;98.25;7.80657e-171;1.0;2
857.833;98.75;5.66419e-176;1.0;2
862.777;99.25;3.47797e-181;1.0;2
867.722;99.75;1.78952e-186;1.0;2
872.666;100.25;7.7201e-192;1.0;2
877.622;100.75;2.71711e-197;1.0;2
882.575;101.25;8.04815e-203;1.0;2
887.528;101.75;1.99793e-208;1.0;2
892.48;102.25;4.17349e-214;1.0;2
897.43;102.75;7.35123e-220;1.0;2
902.373;103.25;1.1024e-225;1.0;2