File: src/data/kinetics/q10/peak_5.txt
#EXPORTTYPE:DATA SINGLE
#FTYPE:ANSI
#IDENTITY:005922
#DECIMAL:POINT
#SEPARATOR:SEMICOLON
#MTYPE:DSC
#PROJECT:
#TEMPCAL:TCALZERO.TCX
#SENSITIVITY:SENSZERO.EXX
#LABORATORY:13
#REMARK:
#SAMPLE:2
#SAMPLE MASS /mg:7.28
#REFERENCE:
#REFERENCE MASS /mg:0
#TYPE OF CRUCIBLE:DSC/TG pan Al2O3
#SAMPLE CRUCIBLE MASS /mg:0
#REFERENCE CRUCIBLE MASS /mg:0
#DSC RANGE /�V:5000
#TG RANGE /mg:5000
#TAU-R:---
#CORR. CODE:020
#EXO:+1
#RANGE:35�C/00:00/35�C/10,0(K/min)/920�C/
#SEGMENT:S1-2/2
#SEG. 1:35�C/00:15/35�C
#SEG. 2:35�C/10,0(K/min)/920�C

##Temp./�C;Time/min;DSC/(uV/mg);Sensit./(uV/mW);Segment
33.98564;0.25;0.0;1.0;1
34.03218;0.75;0.0;1.0;1
34.06923;1.25;0.0;1.0;1
34.09324;1.75;0.0;1.0;1
34.12312;2.25;0.0;1.0;1
34.14771;2.75;0.0;1.0;1
34.15806;3.25;0.0;1.0;1
34.16376;3.75;0.0;1.0;1
34.177;4.25;0.0;1.0;1
34.18659;4.75;0.0;1.0;1
34.19218;5.25;0.0;1.0;1
34.19318;5.75;0.0;1.0;1
34.19906;6.25;0.0;1.0;1
34.19976;6.75;0.0;1.0;1
34.20388;7.25;0.0;1.0;1
34.20453;7.75;0.0;1.0;1
34.202;8.25;0.0;1.0;1
34.20118;8.75;0.0;1.0;1
34.20265;9.25;0.0;1.0;1
34.20324;9.75;0.0;1.0;1
34.20876;10.25;0.0;1.0;1
34.20641;10.75;0.0;1.0;1
34.20765;11.25;0.0;1.0;1
34.20853;11.75;0.0;1.0;1
34.20988;12.25;0.0;1.0;1
34.20865;12.75;0.0;1.0;1
34.20865;13.25;0.0;1.0;1
34.21424;13.75;0.0;1.0;1
34.21053;14.25;0.0;1.0;1
34.209;14.75;0.0;1.0;1
34.21049;15.25;0.0;1.0;2
34.4492;15.75;0.0;1.0;2
35.4671;16.25;0.0;1.0;2
37.34251;16.75;0.0;1.0;2
39.90639;17.25;0.0;1.0;2
42.97527;17.75;0.0;1.0;2
46.42406;18.25;0.0;1.0;2
50.19397;18.75;0.0;1.0;2
54.22524;19.25;0.0;1.0;2
58.4711;19.75;0.0;1.0;2
62.89915;20.25;0.0;1.0;2
67.4673;20.75;0.0;1.0;2
72.14683;21.25;0.0;1.0;2
76.90669;21.75;0.0;1.0;2
81.75552;22.25;0.0;1.0;2
86.67746;22.75;0.0;1.0;2
91.68109;23.25;0.0;1.0;2
96.73827;23.75;0.0;1.0;2
101.844;24.25;0.0;1.0;2
106.979;24.75;0.0;1.0;2
112.126;25.25;0.0;1.0;2
117.277;25.75;0.0;1.0;2
122.435;26.25;0.0;1.0;2
127.605;26.75;0.0;1.0;2
132.809;27.25;0.0;1.0;2
138.029;27.75;0.0;1.0;2
143.2681;28.25;0.0;1.0;2
148.522;28.75;3.0e-323;1.0;2
153.785;29.25;2.18824e-317;1.0;2
159.044;29.75;1.3386e-311;1.0;2
164.299;30.25;7.16151e-306;1.0;2
169.547;30.75;3.33895e-300;1.0;2
174.8;31.25;1.39073e-294;1.0;2
180.05;31.75;5.09712e-289;1.0;2
185.301;32.25;1.65616e-283;1.0;2
190.5591;32.75;4.83776e-278;1.0;2
195.817;33.25;1.2506e-272;1.0;2
201.073;33.75;2.84433e-267;1.0;2
206.33;34.25;5.73311e-262;1.0;2
211.578;34.75;1.00102e-256;1.0;2
216.827;35.25;1.55122e-251;1.0;2
222.074;35.75;2.11735e-246;1.0;2
227.314;36.25;2.52048e-241;1.0;2
232.555;36.75;2.65943e-236;1.0;2
237.791;37.25;2.45382e-231;1.0;2
243.019;37.75;1.97184e-226;1.0;2
248.239;38.25;1.3799e-221;1.0;2
253.459;38.75;8.55529e-217;1.0;2
258.677;39.25;4.67888e-212;1.0;2
263.892;39.75;2.25044e-207;1.0;2
269.1;40.25;9.47089e-203;1.0;2
274.306;40.75;3.51638e-198;1.0;2
279.505;41.25;1.14395e-193;1.0;2
284.701;41.75;3.27395e-189;1.0;2
289.889;42.25;8.17692e-185;1.0;2
295.076;42.75;1.81116e-180;1.0;2
300.255;43.25;3.50785e-176;1.0;2
305.438;43.75;6.06497e-172;1.0;2
310.612;44.25;9.16486e-168;1.0;2
315.785;44.75;1.22806e-163;1.0;2
320.95;45.25;1.43713e-159;1.0;2
326.108;45.75;1.47611e-155;1.0;2
331.2577;46.25;1.3294e-151;1.0;2
336.403;46.75;1.05547e-147;1.0;2
341.5496;47.25;7.46275e-144;1.0;2
346.695;47.75;4.68171e-140;1.0;2
351.833;48.25;2.57872e-136;1.0;2
356.966;48.75;1.25384e-132;1.0;2
362.093;49.25;5.36849e-129;1.0;2
367.218;49.75;2.03669e-125;1.0;2
372.336;50.25;6.80504e-122;1.0;2
377.455;50.75;2.02701e-118;1.0;2
382.5729;51.25;5.36765e-115;1.0;2
387.685;51.75;1.25303e-111;1.0;2
392.799;52.25;2.61617e-108;1.0;2
397.901;52.75;4.76662e-105;1.0;2
402.999;53.25;7.70065e-102;1.0;2
408.097;53.75;1.10848e-98;1.0;2
413.188;54.25;1.40842e-95;1.0;2
418.2771;54.75;1.59024e-92;1.0;2
423.368;55.25;1.60422e-89;1.0;2
428.453;55.75;1.43096e-86;1.0;2
433.535;56.25;1.13361e-83;1.0;2
438.611;56.75;7.93813e-81;1.0;2
443.681;57.25;4.92244e-78;1.0;2
448.75;57.75;2.72153e-75;1.0;2
453.818;58.25;1.33921e-72;1.0;2
458.884;58.75;5.86697e-70;1.0;2
463.949;59.25;2.29066e-67;1.0;2
469.003;59.75;7.88655e-65;1.0;2
474.059;60.25;2.4258e-62;1.0;2
479.109;60.75;6.62419e-60;1.0;2
484.1589;61.25;1.61452e-57;1.0;2
489.207;61.75;3.50692e-55;1.0;2
494.248;62.25;6.7508e-53;1.0;2
499.294;62.75;1.16611e-50;1.0;2
504.348;63.25;1.81466e-48;1.0;2
509.414;63.75;2.54867e-46;1.0;2
514.481;64.25;3.19714e-44;1.0;2
519.558;64.75;3.61113e-42;1.0;2
524.637;65.25;3.64638e-40;1.0;2
529.719;65.75;3.28888e-38;1.0;2
534.819;66.25;2.68685e-36;1.0;2
540.301;66.75;2.68308e-34;1.0;2
545.883;67.25;2.53902e-32;1.0;2
551.053;67.75;1.51835e-30;1.0;2
556.044;68.25;7.0419e-29;1.0;2
560.9793;68.75;2.80641e-27;1.0;2
565.888;69.25;9.84917e-26;1.0;2
570.794;69.75;3.09833e-24;1.0;2
575.705;70.25;8.79117e-23;1.0;2
580.618;70.75;2.24287e-21;1.0;2
585.54;71.25;5.1694e-20;1.0;2
590.47;71.75;1.07536e-18;1.0;2
595.411;72.25;2.02124e-17;1.0;2
600.366;72.75;3.43341e-16;1.0;2
605.318;73.25;5.22202e-15;1.0;2
610.269;73.75;7.11926e-14;1.0;2
615.234;74.25;8.76459e-13;1.0;2
620.198;74.75;9.66786e-12;1.0;2
625.172;75.25;9.59947e-11;1.0;2
630.145;75.75;8.53521e-10;1.0;2
635.12;76.25;6.80568e-09;1.0;2
640.0961;76.75;4.86175e-08;1.0;2
645.073;77.25;3.11312e-07;1.0;2
650.051;77.75;1.78583e-06;1.0;2
655.0239;78.25;9.16236e-06;1.0;2
659.994;78.75;4.20842e-05;1.0;2
664.953;79.25;0.000172648;1.0;2
669.913;79.75;0.000635197;1.0;2
674.873;80.25;0.00209491;1.0;2
679.8299;80.75;0.00618966;1.0;2
684.783;81.25;0.016385;1.0;2
689.732;81.75;0.0388682;1.0;2
694.679;82.25;0.0826546;1.0;2
699.622;82.75;0.157614;1.0;2
704.56;83.25;0.269475;1.0;2
709.502;83.75;0.413545;1.0;2
714.4421;84.25;0.569275;1.0;2
719.3678;84.75;0.702808;1.0;2
724.29;85.25;0.778948;1.0;2
729.251;85.75;0.774858;1.0;2
734.207;86.25;0.691034;1.0;2
739.14;86.75;0.55327;1.0;2
744.053;87.25;0.398194;1.0;2
748.954;87.75;0.25775;1.0;2
753.854;88.25;0.149964;1.0;2
758.766;88.75;0.0782755;1.0;2
763.697;89.25;0.0365972;1.0;2
768.649;89.75;0.0152939;1.0;2
773.611;90.25;0.00572099;1.0;2
778.574;90.75;0.00191753;1.0;2
783.539;91.25;0.000575694;1.0;2
788.504;91.75;0.000154937;1.0;2
793.464;92.25;3.74306e-05;1.0;2
798.417;92.75;8.12329e-06;1.0;2
803.361;93.25;1.58529e-06;1.0;2
808.311;93.75;2.77032e-07;1.0;2
813.258;94.25;4.34568e-08;1.0;2
818.21;94.75;6.10316e-09;1.0;2
823.164;95.25;7.67798e-10;1.0;2
828.121;95.75;8.65128e-11;1.0;2
833.079;96.25;8.73772e-12;1.0;2
838.036;96.75;7.91033e-13;1.0;2
842.984;97.25;6.45445e-14;1.0;2
847.935;97.75;4.7131e-15;1.0;2
852.884;98.25;3.09125e-16;1.0;2
857.833;98.75;1.81876e-17;1.0;2
862.777;99.25;9.62049e-19;1.0;2
867.722;99.75;4.56439e-20;1.0;2
872.666;100.25;1.94265e-21;1.0;2
877.622;100.75;7.36391e-23;1.0;2
882.575;101.25;2.50594e-24;1.0;2
887.528;101.75;7.64744e-26;1.0;2
892.48;102.25;2.09522e-27;1.0;2
897.43;102.75;5.15694e-29;1.0;2
902.373;103.25;1.14349e-30;1.0;2