File: src/data/kinetics/q10/peak_3.txt
#EXPORTTYPE:DATA SINGLE
#FTYPE:ANSI
#IDENTITY:005922
#DECIMAL:POINT
#SEPARATOR:SEMICOLON
#MTYPE:DSC
#PROJECT:
#TEMPCAL:TCALZERO.TCX
#SENSITIVITY:SENSZERO.EXX
#LABORATORY:13
#REMARK:
#SAMPLE:2
#SAMPLE MASS /mg:7.28
#REFERENCE:
#REFERENCE MASS /mg:0
#TYPE OF CRUCIBLE:DSC/TG pan Al2O3
#SAMPLE CRUCIBLE MASS /mg:0
#REFERENCE CRUCIBLE MASS /mg:0
#DSC RANGE /�V:5000
#TG RANGE /mg:5000
#TAU-R:---
#CORR. CODE:020
#EXO:+1
#RANGE:35�C/00:00/35�C/10,0(K/min)/920�C/
#SEGMENT:S1-2/2
#SEG. 1:35�C/00:15/35�C
#SEG. 2:35�C/10,0(K/min)/920�C

##Temp./�C;Time/min;DSC/(uV/mg);Sensit./(uV/mW);Segment
33.98564;0.25;1.32113e-52;1.0;1
34.03218;0.75;1.34567e-52;1.0;1
34.06923;1.25;1.36552e-52;1.0;1
34.09324;1.75;1.37855e-52;1.0;1
34.12312;2.25;1.39493e-52;1.0;1
34.14771;2.75;1.40855e-52;1.0;1
34.15806;3.25;1.41433e-52;1.0;1
34.16376;3.75;1.41752e-52;1.0;1
34.177;4.25;1.42495e-52;1.0;1
34.18659;4.75;1.43037e-52;1.0;1
34.19218;5.25;1.43353e-52;1.0;1
34.19318;5.75;1.4341e-52;1.0;1
34.19906;6.25;1.43743e-52;1.0;1
34.19976;6.75;1.43783e-52;1.0;1
34.20388;7.25;1.44018e-52;1.0;1
34.20453;7.75;1.44055e-52;1.0;1
34.202;8.25;1.43911e-52;1.0;1
34.20118;8.75;1.43864e-52;1.0;1
34.20265;9.25;1.43948e-52;1.0;1
34.20324;9.75;1.43981e-52;1.0;1
34.20876;10.25;1.44296e-52;1.0;1
34.20641;10.75;1.44162e-52;1.0;1
34.20765;11.25;1.44232e-52;1.0;1
34.20853;11.75;1.44282e-52;1.0;1
34.20988;12.25;1.44359e-52;1.0;1
34.20865;12.75;1.44289e-52;1.0;1
34.20865;13.25;1.44289e-52;1.0;1
34.21424;13.75;1.44608e-52;1.0;1
34.21053;14.25;1.44397e-52;1.0;1
34.209;14.75;1.44309e-52;1.0;1
34.21049;15.25;1.44394e-52;1.0;2
34.4492;15.75;1.58678e-52;1.0;2
35.4671;16.25;2.37152e-52;1.0;2
37.34251;16.75;4.96344e-52;1.0;2
39.90639;17.25;1.35731e-51;1.0;2
42.97527;17.75;4.4997e-51;1.0;2
46.42406;18.25;1.71769e-50;1.0;2
50.19397;18.75;7.36252e-50;1.0;2
54.22524;19.25;3.45526e-49;1.0;2
58.4711;19.75;1.74063e-48;1.0;2
62.89915;20.25;9.2818e-48;1.0;2
67.4673;20.75;5.14926e-47;1.0;2
72.14683;21.25;2.93684e-46;1.0;2
76.90669;21.75;1.70075e-45;1.0;2
81.75552;22.25;1.00246e-44;1.0;2
86.67746;22.75;5.97463e-44;1.0;2
91.68109;23.25;3.60908e-43;1.0;2
96.73827;23.75;2.18597e-42;1.0;2
101.844;24.25;1.32465e-41;1.0;2
106.979;24.75;7.97232e-41;1.0;2
112.126;25.25;4.73556e-40;1.0;2
117.277;25.75;2.76889e-39;1.0;2
122.435;26.25;1.59483e-38;1.0;2
127.605;26.75;9.06499e-38;1.0;2
132.809;27.25;5.11982e-37;1.0;2
138.029;27.75;2.85637e-36;1.0;2
143.2681;28.25;1.57551e-35;1.0;2
148.522;28.75;8.5757e-35;1.0;2
153.785;29.25;4.59897e-34;1.0;2
159.044;29.75;2.41871e-33;1.0;2
164.299;30.25;1.24762e-32;1.0;2
169.547;30.75;6.30915e-32;1.0;2
174.8;31.25;3.13752e-31;1.0;2
180.05;31.75;1.53148e-30;1.0;2
185.301;32.25;7.34433e-30;1.0;2
190.5591;32.75;3.46619e-29;1.0;2
195.817;33.25;1.60682e-28;1.0;2
201.073;33.75;7.31113e-28;1.0;2
206.33;34.25;3.26809e-27;1.0;2
211.578;34.75;1.43114e-26;1.0;2
216.827;35.25;6.15808e-26;1.0;2
222.074;35.75;2.60122e-25;1.0;2
227.314;36.25;1.07735e-24;1.0;2
232.555;36.75;4.38373e-24;1.0;2
237.791;37.25;1.74955e-23;1.0;2
243.019;37.75;6.84537e-23;1.0;2
248.239;38.25;2.62577e-22;1.0;2
253.459;38.75;9.89482e-22;1.0;2
258.677;39.25;3.66122e-21;1.0;2
263.892;39.75;1.3297e-20;1.0;2
269.1;40.25;4.73734e-20;1.0;2
274.306;40.75;1.65728e-19;1.0;2
279.505;41.25;5.68837e-19;1.0;2
284.701;41.75;1.91656e-18;1.0;2
289.889;42.25;6.33271e-18;1.0;2
295.076;42.75;2.05598e-17;1.0;2
300.255;43.25;6.54778e-17;1.0;2
305.438;43.75;2.05055e-16;1.0;2
310.612;44.25;6.29903e-16;1.0;2
315.785;44.75;1.90126e-15;1.0;2
320.95;45.25;5.62875e-15;1.0;2
326.108;45.75;1.63546e-14;1.0;2
331.2577;46.25;4.66318e-14;1.0;2
336.403;46.75;1.30562e-13;1.0;2
341.5496;47.25;3.59374e-13;1.0;2
346.695;47.75;9.72056e-13;1.0;2
351.833;48.25;2.58069e-12;1.0;2
356.966;48.75;6.72898e-12;1.0;2
362.093;49.25;1.72274e-11;1.0;2
367.218;49.75;4.33364e-11;1.0;2
372.336;50.25;1.07043e-10;1.0;2
377.455;50.75;2.59974e-10;1.0;2
382.5729;51.25;6.20627e-10;1.0;2
387.685;51.75;1.455e-09;1.0;2
392.799;52.25;3.35518e-09;1.0;2
397.901;52.75;7.58978e-09;1.0;2
402.999;53.25;1.6872e-08;1.0;2
408.097;53.75;3.6877e-08;1.0;2
413.188;54.25;7.91703e-08;1.0;2
418.2771;54.75;1.67073e-07;1.0;2
423.368;55.25;3.46764e-07;1.0;2
428.453;55.75;7.07087e-07;1.0;2
433.535;56.25;1.41719e-06;1.0;2
438.611;56.75;2.79058e-06;1.0;2
443.681;57.25;5.39958e-06;1.0;2
448.75;57.75;1.02738e-05;1.0;2
453.818;58.25;1.9219e-05;1.0;2
458.884;58.75;3.53491e-05;1.0;2
463.949;59.25;6.39318e-05;1.0;2
469.003;59.75;0.000113579;1.0;2
474.059;60.25;0.000198467;1.0;2
479.109;60.75;0.000340895;1.0;2
484.1589;61.25;0.000575871;1.0;2
489.207;61.75;0.000956622;1.0;2
494.248;62.25;0.00156187;1.0;2
499.294;62.75;0.00250924;1.0;2
504.348;63.25;0.00396809;1.0;2
509.414;63.75;0.00617758;1.0;2
514.481;64.25;0.0094588;1.0;2
519.558;64.75;0.0142539;1.0;2
524.637;65.25;0.0211267;1.0;2
529.719;65.75;0.0307961;1.0;2
534.819;66.25;0.0441988;1.0;2
540.301;66.75;0.0639542;1.0;2
545.883;67.25;0.0913066;1.0;2
551.053;67.75;0.124702;1.0;2
556.044;68.25;0.165725;1.0;2
560.9793;68.75;0.216072;1.0;2
565.888;69.25;0.27692;1.0;2
570.794;69.75;0.349324;1.0;2
575.705;70.25;0.433908;1.0;2
580.618;70.75;0.530601;1.0;2
585.54;71.25;0.63893;1.0;2
590.47;71.75;0.757545;1.0;2
595.411;72.25;0.884369;1.0;2
600.366;72.75;1.01649;1.0;2
605.318;73.25;1.14974;1.0;2
610.269;73.75;1.27983;1.0;2
615.234;74.25;1.40241;1.0;2
620.198;74.75;1.51224;1.0;2
625.172;75.25;1.60486;1.0;2
630.145;75.75;1.67591;1.0;2
635.12;76.25;1.72217;1.0;2
640.0961;76.75;1.74139;1.0;2
645.073;77.25;1.73266;1.0;2
650.051;77.75;1.69637;1.0;2
655.0239;78.25;1.63433;1.0;2
659.994;78.75;1.54944;1.0;2
664.953;79.25;1.44579;1.0;2
669.913;79.75;1.32759;1.0;2
674.873;80.25;1.19968;1.0;2
679.8299;80.75;1.06695;1.0;2
684.783;81.25;0.93393;1.0;2
689.732;81.75;0.804636;1.0;2
694.679;82.25;0.682347;1.0;2
699.622;82.75;0.56955;1.0;2
704.56;83.25;0.468;1.0;2
709.502;83.75;0.378425;1.0;2
714.4421;84.25;0.301202;1.0;2
719.3678;84.75;0.236126;1.0;2
724.29;85.25;0.182245;1.0;2
729.251;85.75;0.138147;1.0;2
734.207;86.25;0.103081;1.0;2
739.14;86.75;0.0758094;1.0;2
744.053;87.25;0.0549508;1.0;2
748.954;87.75;0.0392436;1.0;2
753.854;88.25;0.0275925;1.0;2
758.766;88.75;0.0190805;1.0;2
763.697;89.25;0.0129706;1.0;2
768.649;89.75;0.00866246;1.0;2
773.611;90.25;0.00568935;1.0;2
778.574;90.75;0.00367666;1.0;2
783.539;91.25;0.00233762;1.0;2
788.504;91.75;0.00146269;1.0;2
793.464;92.25;0.000901134;1.0;2
798.417;92.75;0.00054671;1.0;2
803.361;93.25;0.00032671;1.0;2
808.311;93.75;0.000192054;1.0;2
813.258;94.25;0.000111139;1.0;2
818.21;94.75;6.32646e-05;1.0;2
823.164;95.25;3.54313e-05;1.0;2
828.121;95.75;1.95227e-05;1.0;2
833.079;96.25;1.05856e-05;1.0;2
838.036;96.75;5.64828e-06;1.0;2
842.984;97.25;2.96996e-06;1.0;2
847.935;97.75;1.53609e-06;1.0;2
852.884;98.25;7.82205e-07;1.0;2
857.833;98.75;3.92027e-07;1.0;2
862.777;99.25;1.93478e-07;1.0;2
867.722;99.75;9.39769e-08;1.0;2
872.666;100.25;4.49259e-08;1.0;2
877.622;100.75;2.1103e-08;1.0;2
882.575;101.25;9.75811e-09;1.0;2
887.528;101.75;4.44075e-09;1.0;2
892.48;102.25;1.9894e-09;1.0;2
897.43;102.75;8.77449e-10;1.0;2
902.373;103.25;3.81258e-10;1.0;2