File: src/data/kinetics/q5/peak_1.txt
#EXPORTTYPE:DATA SINGLE
#FILE:00592013__Al2O3_900_5_N2_20_air_20.ngb-ds1
#FTYPE:ANSI
#IDENTITY:005920
#DECIMAL:POINT
#SEPARATOR:SEMICOLON
#MTYPE:DSC
#PROJECT:
#DATE/TIME:21.07.2025 08:33
#CORR. FILE:005919_bline_Al2O3_900_5_N2_20_air_20.ngb-bs1
#TEMPCAL:TCALZERO.TCX
#SENSITIVITY:SENSZERO.EXX
#LABORATORY: 11
#OPERATOR:
#REMARK:
#SAMPLE:1
#SAMPLE MASS /mg:9.99
#MATERIAL:
#REFERENCE:
#REFERENCE MASS /mg:0
#TYPE OF CRUCIBLE:DSC/TG pan Al2O3
#SAMPLE CRUCIBLE MASS /mg:0
#REFERENCE CRUCIBLE MASS /mg:0
#DSC RANGE /V:5000
#TG RANGE /mg:5000
#TAU-R:---
#CORR. CODE:020
#EXO:+1
#RANGE:35C/00:00/35C/5,0(K/min)/920C/
#SEGMENT:S1-2/2
#SEG. 1:35C/00:15/35C
#SEG. 2:35C/5,0(K/min)/920C

##Temp./C;Time/min;DSC/(uV/mg);Sensit./(uV/mW);Segment
34.17636;0.25;0.0;1.0;1
34.17688;1.0;0.0;1.0;1
34.16876;1.75;0.0;1.0;1
34.16576;2.5;0.0;1.0;1
34.16288;3.25;0.0;1.0;1
34.16165;4.0;0.0;1.0;1
34.16759;4.75;0.0;1.0;1
34.15641;5.5;0.0;1.0;1
34.15641;6.25;0.0;1.0;1
34.15471;7.0;0.0;1.0;1
34.15988;7.75;0.0;1.0;1
34.15247;8.5;0.0;1.0;1
34.15082;9.25;0.0;1.0;1
34.15165;10.0;0.0;1.0;1
34.14282;10.75;0.0;1.0;1
34.13618;11.5;0.0;1.0;1
34.12518;12.25;0.0;1.0;1
34.12447;13.0;0.0;1.0;1
34.12024;13.75;0.0;1.0;1
34.10235;14.5;0.0;1.0;1
34.10516;15.25;0.0;1.0;2
34.42622;16.0;0.0;1.0;2
35.61708;16.75;0.0;1.0;2
37.54164;17.5;0.0;1.0;2
39.94421;18.25;0.0;1.0;2
42.69183;19.0;0.0;1.0;2
45.6928;19.75;0.0;1.0;2
48.88834;20.5;0.0;1.0;2
52.23305;21.25;0.0;1.0;2
55.68474;22.0;0.0;1.0;2
59.23476;22.75;0.0;1.0;2
62.86358;23.5;0.0;1.0;2
66.53528;24.25;0.0;1.0;2
70.24448;25.0;0.0;1.0;2
73.97395;25.75;0.0;1.0;2
77.71669;26.5;0.0;1.0;2
81.47146;27.25;0.0;1.0;2
85.24469;28.0;0.0;1.0;2
89.03755;28.75;0.0;1.0;2
92.84121;29.5;0.0;1.0;2
96.65528;30.25;0.0;1.0;2
100.482;31.0;0.0;1.0;2
104.318;31.75;0.0;1.0;2
108.15;32.5;0.0;1.0;2
111.973;33.25;0.0;1.0;2
115.8;34.0;0.0;1.0;2
119.615;34.75;0.0;1.0;2
123.434;35.5;0.0;1.0;2
127.259;36.25;0.0;1.0;2
131.096;37.0;0.0;1.0;2
134.935;37.75;0.0;1.0;2
138.773;38.5;0.0;1.0;2
142.619;39.25;0.0;1.0;2
146.477;40.0;0.0;1.0;2
150.3408;40.75;0.0;1.0;2
154.201;41.5;0.0;1.0;2
158.066;42.25;0.0;1.0;2
161.923;43.0;0.0;1.0;2
165.782;43.75;0.0;1.0;2
169.63;44.5;0.0;1.0;2
173.484;45.25;0.0;1.0;2
177.339;46.0;0.0;1.0;2
181.188;46.75;0.0;1.0;2
185.034;47.5;0.0;1.0;2
188.884;48.25;0.0;1.0;2
192.741;49.0;0.0;1.0;2
196.596;49.75;0.0;1.0;2
200.448;50.5;0.0;1.0;2
204.303;51.25;0.0;1.0;2
208.16;52.0;0.0;1.0;2
212.011;52.75;0.0;1.0;2
215.857;53.5;0.0;1.0;2
219.696;54.25;0.0;1.0;2
223.532;55.0;0.0;1.0;2
227.368;55.75;0.0;1.0;2
231.206;56.5;0.0;1.0;2
235.045;57.25;0.0;1.0;2
238.878;58.0;0.0;1.0;2
242.71;58.75;0.0;1.0;2
246.539;59.5;0.0;1.0;2
250.374;60.25;0.0;1.0;2
254.205;61.0;0.0;1.0;2
258.036;61.75;0.0;1.0;2
261.867;62.5;0.0;1.0;2
265.7;63.25;0.0;1.0;2
269.535;64.0;0.0;1.0;2
273.359;64.75;0.0;1.0;2
277.181;65.5;0.0;1.0;2
281.006;66.25;0.0;1.0;2
284.836;67.0;0.0;1.0;2
288.666;67.75;0.0;1.0;2
292.485;68.5;0.0;1.0;2
296.307;69.25;0.0;1.0;2
300.129;70.0;0.0;1.0;2
303.947;70.75;0.0;1.0;2
307.755;71.5;0.0;1.0;2
311.568;72.25;0.0;1.0;2
315.373;73.0;0.0;1.0;2
319.1809;73.75;0.0;1.0;2
322.988;74.5;0.0;1.0;2
326.7946;75.25;0.0;1.0;2
330.599;76.0;0.0;1.0;2
334.409;76.75;0.0;1.0;2
338.201;77.5;0.0;1.0;2
342.001;78.25;0.0;1.0;2
345.801;79.0;0.0;1.0;2
349.596;79.75;0.0;1.0;2
353.392;80.5;0.0;1.0;2
357.19;81.25;0.0;1.0;2
360.985;82.0;0.0;1.0;2
364.776;82.75;0.0;1.0;2
368.565;83.5;0.0;1.0;2
372.3491;84.25;0.0;1.0;2
376.134;85.0;0.0;1.0;2
379.921;85.75;0.0;1.0;2
383.7;86.5;0.0;1.0;2
387.478;87.25;0.0;1.0;2
391.254;88.0;0.0;1.0;2
395.0354;88.75;0.0;1.0;2
398.817;89.5;0.0;1.0;2
402.599;90.25;8.87871e-311;1.0;2
406.379;91.0;4.00986e-291;1.0;2
410.16;91.75;4.12566e-272;1.0;2
413.935;92.5;9.02798e-254;1.0;2
417.706;93.25;4.29358e-236;1.0;2
421.478;94.0;4.69718e-219;1.0;2
425.248;94.75;1.15394e-202;1.0;2
429.019;95.5;6.53023e-187;1.0;2
432.795;96.25;8.84569e-172;1.0;2
436.573;97.0;2.75605e-157;1.0;2
440.3477;97.75;1.89484e-143;1.0;2
444.117;98.5;2.85556e-130;1.0;2
447.8979;99.25;1.06641e-117;1.0;2
451.676;100.0;8.88681e-106;1.0;2
455.4418;100.75;1.53985e-94;1.0;2
459.202;101.5;5.91203e-84;1.0;2
462.968;102.25;5.41108e-74;1.0;2
466.727;103.0;1.0924e-64;1.0;2
470.486;103.75;5.07277e-56;1.0;2
474.243;104.5;5.37886e-48;1.0;2
477.9978;105.25;1.30134e-40;1.0;2
481.753;106.0;7.29489e-34;1.0;2
485.507;106.75;9.40239e-28;1.0;2
489.266;107.5;2.84688e-22;1.0;2
493.024;108.25;1.97976e-17;1.0;2
496.782;109.0;3.17316e-13;1.0;2
500.541;109.75;1.17653e-09;1.0;2
504.301;110.5;1.00454e-06;1.0;2
508.055;111.25;0.000196064;1.0;2
511.798;112.0;0.0087711;1.0;2
515.603;112.75;0.0939742;1.0;2
519.459;113.5;0.223987;1.0;2
523.318;114.25;0.113715;1.0;2
527.4373;115.0;0.0100031;1.0;2
531.691;115.75;0.000127675;1.0;2
535.532;116.5;4.95427e-07;1.0;2
539.218;117.25;5.67861e-10;1.0;2
542.871;118.0;1.72024e-13;1.0;2
546.514;118.75;1.3373e-17;1.0;2
550.163;119.5;2.57089e-22;1.0;2
553.823;120.25;1.19152e-27;1.0;2
557.497;121.0;1.29899e-33;1.0;2
561.172;121.75;3.4702e-40;1.0;2
564.8499;122.5;2.24618e-47;1.0;2
568.536;123.25;3.42837e-55;1.0;2
572.223;124.0;1.26547e-63;1.0;2
575.917;124.75;1.09131e-72;1.0;2
579.631;125.5;2.01321e-82;1.0;2
583.346;126.25;8.81932e-93;1.0;2
587.052;127.0;9.75905e-104;1.0;2
590.7589;127.75;2.58855e-115;1.0;2
594.481;128.5;1.46582e-127;1.0;2
598.207;129.25;1.89015e-140;1.0;2
601.936;130.0;5.66591e-154;1.0;2
605.666;130.75;3.92558e-168;1.0;2
609.393;131.5;6.623e-183;1.0;2
613.123;132.25;2.57005e-198;1.0;2
616.8482;133.0;2.46476e-214;1.0;2
620.572;133.75;5.63704e-231;1.0;2
624.294;134.5;3.15797e-248;1.0;2
628.015;135.25;4.19147e-266;1.0;2
631.726;136.0;1.47438e-284;1.0;2
635.431;136.75;1.35717e-303;1.0;2
639.138;137.5;3.0e-323;1.0;2
642.848;138.25;0.0;1.0;2
646.558;139.0;0.0;1.0;2
650.261;139.75;0.0;1.0;2
653.958;140.5;0.0;1.0;2
657.646;141.25;0.0;1.0;2
661.33;142.0;0.0;1.0;2
665.017;142.75;0.0;1.0;2
668.703;143.5;0.0;1.0;2
672.376;144.25;0.0;1.0;2
676.039;145.0;0.0;1.0;2
679.697;145.75;0.0;1.0;2
683.346;146.5;0.0;1.0;2
686.986;147.25;0.0;1.0;2
690.618;148.0;0.0;1.0;2
694.256;148.75;0.0;1.0;2
697.916;149.5;0.0;1.0;2
701.601;150.25;0.0;1.0;2
705.291;151.0;0.0;1.0;2
708.999;151.75;0.0;1.0;2
712.7091;152.5;0.0;1.0;2
716.416;153.25;0.0;1.0;2
720.121;154.0;0.0;1.0;2
723.827;154.75;0.0;1.0;2
727.532;155.5;0.0;1.0;2
731.242;156.25;0.0;1.0;2
734.95;157.0;0.0;1.0;2
738.661;157.75;0.0;1.0;2
742.371;158.5;0.0;1.0;2
746.0747;159.25;0.0;1.0;2
749.774;160.0;0.0;1.0;2
753.474;160.75;0.0;1.0;2
757.179;161.5;0.0;1.0;2
760.88;162.25;0.0;1.0;2
764.587;163.0;0.0;1.0;2
768.295;163.75;0.0;1.0;2
772.008;164.5;0.0;1.0;2
775.722;165.25;0.0;1.0;2
779.436;166.0;0.0;1.0;2
783.14;166.75;0.0;1.0;2
786.842;167.5;0.0;1.0;2
790.548;168.25;0.0;1.0;2
794.255;169.0;0.0;1.0;2
797.966;169.75;0.0;1.0;2
801.672;170.5;0.0;1.0;2
805.379;171.25;0.0;1.0;2
809.08;172.0;0.0;1.0;2
812.779;172.75;0.0;1.0;2
816.475;173.5;0.0;1.0;2
820.177;174.25;0.0;1.0;2
823.877;175.0;0.0;1.0;2
827.58;175.75;0.0;1.0;2
831.283;176.5;0.0;1.0;2
834.987;177.25;0.0;1.0;2
838.691;178.0;0.0;1.0;2
842.396;178.75;0.0;1.0;2
846.101;179.5;0.0;1.0;2
849.801;180.25;0.0;1.0;2
853.5;181.0;0.0;1.0;2
857.203;181.75;0.0;1.0;2
860.904;182.5;0.0;1.0;2
864.607;183.25;0.0;1.0;2
868.312;184.0;0.0;1.0;2
872.0177;184.75;0.0;1.0;2
875.721;185.5;0.0;1.0;2
879.421;186.25;0.0;1.0;2
883.121;187.0;0.0;1.0;2
886.822;187.75;0.0;1.0;2
890.521;188.5;0.0;1.0;2
894.216;189.25;0.0;1.0;2
897.912;190.0;0.0;1.0;2
901.61;190.75;0.0;1.0;2
905.315;191.5;0.0;1.0;2
906.55;191.75;0.0;1.0;2