File: src/data/kinetics/multipeaks/q20/peak_3.txt
#EXPORTTYPE:DATA SINGLE
#FTYPE:ANSI
#IDENTITY:005924
#DECIMAL:POINT
#SEPARATOR:SEMICOLON
#MTYPE:DSC
#PROJECT:
#DATE/TIME:22.07.2025 13:59
#CORR. FILE:005923_bline_Al2O3_900_20_N2_20_air_20.ngb-bs1
#TEMPCAL:TCALZERO.TCX
#SENSITIVITY:SENSZERO.EXX
#LABORATORY:13
#REMARK:
#SAMPLE:3
#SAMPLE MASS /mg:11.02
#REFERENCE:
#REFERENCE MASS /mg:0
#TYPE OF CRUCIBLE:DSC/TG pan Al2O3
#SAMPLE CRUCIBLE MASS /mg:0
#REFERENCE CRUCIBLE MASS /mg:0
#DSC RANGE /�V:5000
#TG RANGE /mg:5000
#TAU-R:---
#CORR. CODE:020
#EXO:+1
#RANGE:35�C/00:00/35�C/20,0(K/min)/920�C/
#SEGMENT:S2/2
#SEG. 1:35�C/00:15/35�C
#SEG. 2:35�C/20,0(K/min)/920�C

##Temp./�C;Time/min;DSC/(uV/mg);Sensit./(uV/mW)
34.12771;15.2525;1.84835e-11;1.0
34.24319;15.5025;1.86325e-11;1.0
34.64471;15.7525;1.91601e-11;1.0
35.4829;16.0025;2.03089e-11;1.0
36.80038;16.2525;2.22526e-11;1.0
38.58895;16.5025;2.51855e-11;1.0
40.80919;16.7525;2.93572e-11;1.0
43.38457;17.0025;3.50486e-11;1.0
46.28457;17.2525;4.27562e-11;1.0
49.45557;17.5025;5.3088e-11;1.0
52.86838;17.7525;6.69417e-11;1.0
56.49052;18.0025;8.55159e-11;1.0
60.29871;18.2525;1.10478e-10;1.0
64.26776;18.5025;1.44066e-10;1.0
68.38686;18.7525;1.89461e-10;1.0
72.62505;19.0025;2.50717e-10;1.0
76.97686;19.2525;3.33685e-10;1.0
81.44562;19.5025;4.46695e-10;1.0
86.04281;19.7525;6.01817e-10;1.0
90.75519;20.0025;8.15181e-10;1.0
95.54043;20.2525;1.10698e-09;1.0
100.409;20.5025;1.50785e-09;1.0
105.338;20.7525;2.05711e-09;1.0
110.304;21.0025;2.80646e-09;1.0
115.315;21.2525;3.83035e-09;1.0
120.365;21.5025;5.22779e-09;1.0
125.466;21.7525;7.13995e-09;1.0
130.616;22.0025;9.75629e-09;1.0
135.815;22.2525;1.3337e-08;1.0
141.059;22.5025;1.82327e-08;1.0
146.342;22.7525;2.49185e-08;1.0
151.657;23.0025;3.4028e-08;1.0
156.988;23.2525;4.63874e-08;1.0
162.33;23.5025;6.31029e-08;1.0
167.6811;23.7525;8.56567e-08;1.0
173.024;24.0025;1.159e-07;1.0
178.4181;24.2525;1.56839e-07;1.0
183.813;24.5025;2.11665e-07;1.0
189.235;24.7525;2.85284e-07;1.0
194.669;25.0025;3.83682e-07;1.0
200.1089;25.2525;5.14749e-07;1.0
205.551;25.5025;6.88732e-07;1.0
210.995;25.7525;9.18955e-07;1.0
216.435;26.0025;1.22249e-06;1.0
221.884;26.2525;1.62248e-06;1.0
227.326;26.5025;2.14646e-06;1.0
232.769;26.7525;2.8317e-06;1.0
238.208;27.0025;3.72455e-06;1.0
243.645;27.2525;4.88485e-06;1.0
249.081;27.5025;6.38801e-06;1.0
254.513;27.7525;8.32864e-06;1.0
259.938;28.0025;1.08246e-05;1.0
265.359;28.2525;1.40265e-05;1.0
270.777;28.5025;1.81225e-05;1.0
276.19;28.7525;2.33438e-05;1.0
281.589;29.0025;2.99666e-05;1.0
286.9809;29.2525;3.83485e-05;1.0
292.374;29.5025;4.89426e-05;1.0
297.754;29.7525;6.22532e-05;1.0
303.122;30.0025;7.89249e-05;1.0
308.487;30.2525;9.97741e-05;1.0
313.8459;30.5025;0.000125756;1.0
319.199;30.7525;0.000158027;1.0
324.539;31.0025;0.000197933;1.0
329.881;31.2525;0.000247261;1.0
335.21;31.5025;0.00030788;1.0
340.529;31.7525;0.000382179;1.0
345.84;32.0025;0.000472973;1.0
351.143;32.2525;0.000583582;1.0
356.438;32.5025;0.000717934;1.0
361.728;32.7525;0.000880667;1.0
367.0099;33.0025;0.00107707;1.0
372.279;33.2525;0.00131314;1.0
377.548;33.5025;0.00159677;1.0
382.81;33.7525;0.00193603;1.0
388.065;34.0025;0.00234061;1.0
393.315;34.2525;0.0028218;1.0
398.549;34.5025;0.00339105;1.0
403.789;34.7525;0.0040654;1.0
409.015;35.0025;0.00485874;1.0
414.236;35.2525;0.00579096;1.0
419.451;35.5025;0.00688289;1.0
424.66;35.7525;0.00815775;1.0
429.864;36.0025;0.00964219;1.0
435.062;36.2525;0.0113657;1.0
440.256;36.5025;0.0133608;1.0
445.444;36.7525;0.0156632;1.0
450.626;37.0025;0.0183117;1.0
455.799;37.2525;0.0213483;1.0
460.966;37.5025;0.0248205;1.0
466.133;37.7525;0.0287834;1.0
471.29;38.0025;0.033286;1.0
476.442;38.2525;0.0383907;1.0
481.587;38.5025;0.0441573;1.0
486.731;38.7525;0.0506606;1.0
491.871;39.0025;0.0579693;1.0
497.004;39.2525;0.0661555;1.0
502.138;39.5025;0.0753092;1.0
507.262;39.7525;0.0854934;1.0
512.391;40.0025;0.0968242;1.0
517.514;40.2525;0.109368;1.0
522.643;40.5025;0.123246;1.0
527.765;40.7525;0.138514;1.0
532.896;41.0025;0.155317;1.0
538.037;41.2525;0.173759;1.0
543.189;41.5025;0.193947;1.0
548.349;41.7525;0.215969;1.0
553.515;42.0025;0.239911;1.0
558.684;42.2525;0.26585;1.0
563.854;42.5025;0.29385;1.0
569.049;42.7525;0.324121;1.0
574.26;43.0025;0.356697;1.0
579.422;43.2525;0.391193;1.0
584.76;43.5025;0.42924;1.0
590.127;43.7525;0.469926;1.0
595.457;44.0025;0.512759;1.0
600.648;44.2525;0.556776;1.0
605.784;44.5025;0.60252;1.0
610.83;44.7525;0.649531;1.0
615.742;45.0025;0.697192;1.0
620.639;45.2525;0.746472;1.0
625.545;45.5025;0.797517;1.0
630.459;45.7525;0.85018;1.0
635.38;46.0025;0.904323;1.0
640.308;46.2525;0.959771;1.0
645.26;46.5025;1.01655;1.0
650.236;46.7525;1.07445;1.0
655.221;47.0025;1.13308;1.0
660.22;47.2525;1.19226;1.0
665.225;47.5025;1.25162;1.0
670.231;47.7525;1.31081;1.0
675.241;48.0025;1.36957;1.0
680.257;48.2525;1.42763;1.0
685.271;48.5025;1.48456;1.0
690.28;48.7525;1.54001;1.0
695.2828;49.0025;1.59367;1.0
700.282;49.2525;1.64523;1.0
705.281;49.5025;1.69441;1.0
710.284;49.7525;1.74095;1.0
715.28;50.0025;1.78445;1.0
720.278;50.2525;1.82473;1.0
725.282;50.5025;1.86151;1.0
730.282;50.7525;1.89448;1.0
735.28;51.0025;1.92345;1.0
740.272;51.2525;1.9482;1.0
745.26;51.5025;1.96857;1.0
750.243;51.7525;1.98443;1.0
755.23;52.0025;1.9957;1.0
760.233;52.2525;2.0023;1.0
765.25;52.5025;2.00414;1.0
770.278;52.7525;2.00117;1.0
775.306;53.0025;1.9934;1.0
780.335;53.2525;1.98088;1.0
785.353;53.5025;1.96375;1.0
790.365;53.7525;1.94213;1.0
795.363;54.0025;1.91624;1.0
800.355;54.2525;1.88624;1.0
805.337;54.5025;1.85239;1.0
810.311;54.7525;1.81491;1.0
815.273;55.0025;1.7741;1.0
820.233;55.2525;1.73017;1.0
825.19;55.5025;1.68341;1.0
830.147;55.7525;1.63408;1.0
835.104;56.0025;1.5825;1.0
840.066;56.2525;1.52891;1.0
845.0319;56.5025;1.47362;1.0
849.994;56.7525;1.41705;1.0
854.957;57.0025;1.35945;1.0
859.918;57.2525;1.30115;1.0
864.877;57.5025;1.24247;1.0
869.837;57.7525;1.18365;1.0
874.792;58.0025;1.12503;1.0
879.749;58.2525;1.0668;1.0
884.703;58.5025;1.00925;1.0
889.657;58.7525;0.952567;1.0
894.614;59.0025;0.896945;1.0