File: src/data/kinetics/multipeaks/q20/peak_0.txt
#EXPORTTYPE:DATA SINGLE
#FTYPE:ANSI
#IDENTITY:005924
#DECIMAL:POINT
#SEPARATOR:SEMICOLON
#MTYPE:DSC
#PROJECT:
#DATE/TIME:22.07.2025 13:59
#CORR. FILE:005923_bline_Al2O3_900_20_N2_20_air_20.ngb-bs1
#TEMPCAL:TCALZERO.TCX
#SENSITIVITY:SENSZERO.EXX
#LABORATORY:13
#REMARK:
#SAMPLE:3
#SAMPLE MASS /mg:11.02
#REFERENCE:
#REFERENCE MASS /mg:0
#TYPE OF CRUCIBLE:DSC/TG pan Al2O3
#SAMPLE CRUCIBLE MASS /mg:0
#REFERENCE CRUCIBLE MASS /mg:0
#DSC RANGE /�V:5000
#TG RANGE /mg:5000
#TAU-R:---
#CORR. CODE:020
#EXO:+1
#RANGE:35�C/00:00/35�C/20,0(K/min)/920�C/
#SEGMENT:S2/2
#SEG. 1:35�C/00:15/35�C
#SEG. 2:35�C/20,0(K/min)/920�C

##Temp./�C;Time/min;DSC/(uV/mg);Sensit./(uV/mW)
34.12771;15.2525;2.99531e-177;1.0
34.24319;15.5025;3.57562e-177;1.0
34.64471;15.7525;6.61659e-177;1.0
35.4829;16.0025;2.3875e-176;1.0
36.80038;16.2525;1.78709e-175;1.0
38.58895;16.5025;2.72546e-174;1.0
40.80919;16.7525;7.91991e-173;1.0
43.38457;17.0025;3.87517e-171;1.0
46.28457;17.2525;3.02578e-169;1.0
49.45557;17.5025;3.45244e-167;1.0
52.86838;17.7525;5.47217e-165;1.0
56.49052;18.0025;1.14052e-162;1.0
60.29871;18.2525;3.00162e-160;1.0
64.26776;18.5025;9.55917e-158;1.0
68.38686;18.7525;3.60704e-155;1.0
72.62505;19.0025;1.53495e-152;1.0
76.97686;19.2525;7.27773e-150;1.0
81.44562;19.5025;3.846e-147;1.0
86.04281;19.7525;2.29118e-144;1.0
90.75519;20.0025;1.50328e-141;1.0
95.54043;20.2525;1.02089e-138;1.0
100.409;20.5025;7.25075e-136;1.0
105.338;20.7525;5.21327e-133;1.0
110.304;21.0025;3.66861e-130;1.0
115.315;21.2525;2.54691e-127;1.0
120.365;21.5025;1.72844e-124;1.0
125.466;21.7525;1.1625e-121;1.0
130.616;22.0025;7.71176e-119;1.0
135.815;22.2525;5.03575e-116;1.0
141.059;22.5025;3.20901e-113;1.0
146.342;22.7525;1.98106e-110;1.0
151.657;23.0025;1.17129e-107;1.0
156.988;23.2525;6.50637e-105;1.0
162.33;23.5025;3.36946e-102;1.0
167.6811;23.7525;1.62467e-99;1.0
173.024;24.0025;7.14145e-97;1.0
178.4181;24.2525;3.05815e-94;1.0
183.813;24.5025;1.20534e-91;1.0
189.235;24.7525;4.49459e-89;1.0
194.669;25.0025;1.55895e-86;1.0
200.1089;25.2525;4.99803e-84;1.0
205.551;25.5025;1.47421e-81;1.0
210.995;25.7525;3.99336e-79;1.0
216.435;26.0025;9.89698e-77;1.0
221.884;26.2525;2.27226e-74;1.0
227.326;26.5025;4.75208e-72;1.0
232.769;26.7525;9.1239e-70;1.0
238.208;27.0025;1.60253e-67;1.0
243.645;27.2525;2.58074e-65;1.0
249.081;27.5025;3.80835e-63;1.0
254.513;27.7525;5.14033e-61;1.0
259.938;28.0025;6.32901e-59;1.0
265.359;28.2525;7.13126e-57;1.0
270.777;28.5025;7.36365e-55;1.0
276.19;28.7525;6.95378e-53;1.0
281.589;29.0025;5.96458e-51;1.0
286.9809;29.2525;4.67324e-49;1.0
292.374;29.5025;3.36989e-47;1.0
297.754;29.7525;2.21051e-45;1.0
303.122;30.0025;1.32153e-43;1.0
308.487;30.2525;7.25152e-42;1.0
313.8459;30.5025;3.64595e-40;1.0
319.199;30.7525;1.67916e-38;1.0
324.539;31.0025;7.05496e-37;1.0
329.881;31.2525;2.73204e-35;1.0
335.21;31.5025;9.65638e-34;1.0
340.529;31.7525;3.12436e-32;1.0
345.84;32.0025;9.26424e-31;1.0
351.143;32.2525;2.51894e-29;1.0
356.438;32.5025;6.28605e-28;1.0
361.728;32.7525;1.44145e-26;1.0
367.0099;33.0025;3.03344e-25;1.0
372.279;33.2525;5.84593e-24;1.0
377.548;33.5025;1.03983e-22;1.0
382.81;33.7525;1.70038e-21;1.0
388.065;34.0025;2.55717e-20;1.0
393.315;34.2525;3.54109e-19;1.0
398.549;34.5025;4.49151e-18;1.0
403.789;34.7525;5.27779e-17;1.0
409.015;35.0025;5.69048e-16;1.0
414.236;35.2525;5.65785e-15;1.0
419.451;35.5025;5.18622e-14;1.0
424.66;35.7525;4.38152e-13;1.0
429.864;36.0025;3.41489e-12;1.0
435.062;36.2525;2.45638e-11;1.0
440.256;36.5025;1.63086e-10;1.0
445.444;36.7525;9.99546e-10;1.0
450.626;37.0025;5.65416e-09;1.0
455.799;37.2525;2.95147e-08;1.0
460.966;37.5025;1.42296e-07;1.0
466.133;37.7525;6.34826e-07;1.0
471.29;38.0025;2.61513e-06;1.0
476.442;38.2525;9.96226e-06;1.0
481.587;38.5025;3.50767e-05;1.0
486.731;38.7525;0.000114353;1.0
491.871;39.0025;0.000345007;1.0
497.004;39.2525;0.000963062;1.0
502.138;39.5025;0.00249084;1.0
507.262;39.7525;0.00595882;1.0
512.391;40.0025;0.0132209;1.0
517.514;40.2525;0.0271609;1.0
522.643;40.5025;0.0517485;1.0
527.765;40.7525;0.0912907;1.0
532.896;41.0025;0.14938;1.0
538.037;41.2525;0.22664;1.0
543.189;41.5025;0.318723;1.0
548.349;41.7525;0.415175;1.0
553.515;42.0025;0.500756;1.0
558.684;42.2525;0.559065;1.0
563.854;42.5025;0.57766;1.0
569.049;42.7525;0.55217;1.0
574.26;43.0025;0.487862;1.0
579.422;43.2525;0.399344;1.0
584.76;43.5025;0.299323;1.0
590.127;43.7525;0.206131;1.0
595.457;44.0025;0.131032;1.0
600.648;44.2525;0.0778705;1.0
605.784;44.5025;0.0430924;1.0
610.83;44.7525;0.0223665;1.0
615.742;45.0025;0.0110044;1.0
620.639;45.2525;0.00506166;1.0
625.545;45.5025;0.00216808;1.0
630.459;45.7525;0.000864884;1.0
635.38;46.0025;0.000321201;1.0
640.308;46.2525;0.000111044;1.0
645.26;46.5025;3.55718e-05;1.0
650.236;46.7525;1.05525e-05;1.0
655.221;47.0025;2.90643e-06;1.0
660.22;47.2525;7.41997e-07;1.0
665.225;47.5025;1.75863e-07;1.0
670.231;47.7525;3.87532e-08;1.0
675.241;48.0025;7.93241e-09;1.0
680.257;48.2525;1.50648e-09;1.0
685.271;48.5025;2.66141e-10;1.0
690.28;48.7525;4.38135e-11;1.0
695.2828;49.0025;6.7204e-12;1.0
700.282;49.2525;9.60105e-13;1.0
705.281;49.5025;1.27598e-13;1.0
710.284;49.7525;1.57496e-14;1.0
715.28;50.0025;1.81382e-15;1.0
720.278;50.2525;1.94039e-16;1.0
725.282;50.5025;1.92634e-17;1.0
730.282;50.7525;1.78187e-18;1.0
735.28;51.0025;1.53444e-19;1.0
740.272;51.2525;1.23233e-20;1.0
745.26;51.5025;9.23144e-22;1.0
750.243;51.7525;6.45074e-23;1.0
755.23;52.0025;4.18631e-24;1.0
760.233;52.2525;2.5046e-25;1.0
765.25;52.5025;1.38232e-26;1.0
770.278;52.7525;7.0468e-28;1.0
775.306;53.0025;3.33762e-29;1.0
780.335;53.2525;1.46854e-30;1.0
785.353;53.5025;6.0496e-32;1.0
790.365;53.7525;2.32407e-33;1.0
795.363;54.0025;8.38745e-35;1.0
800.355;54.2525;2.82481e-36;1.0
805.337;54.5025;8.91907e-38;1.0
810.311;54.7525;2.63574e-39;1.0
815.273;55.0025;7.3108e-41;1.0
820.233;55.2525;1.89126e-42;1.0
825.19;55.5025;4.56581e-44;1.0
830.147;55.7525;1.0267e-45;1.0
835.104;56.0025;2.15107e-47;1.0
840.066;56.2525;4.17901e-49;1.0
845.0319;56.5025;7.53192e-51;1.0
849.994;56.7525;1.26832e-52;1.0
854.957;57.0025;1.98742e-54;1.0
859.918;57.2525;2.90304e-56;1.0
864.877;57.5025;3.9583e-58;1.0
869.837;57.7525;5.02088e-60;1.0
874.792;58.0025;5.95758e-62;1.0
879.749;58.2525;6.57088e-64;1.0
884.703;58.5025;6.76803e-66;1.0
889.657;58.7525;6.49004e-68;1.0
894.614;59.0025;5.78272e-70;1.0