File: src/data/kinetics/multipeaks/q20/peak_1.txt
#EXPORTTYPE:DATA SINGLE
#FTYPE:ANSI
#IDENTITY:005924
#DECIMAL:POINT
#SEPARATOR:SEMICOLON
#MTYPE:DSC
#PROJECT:
#DATE/TIME:22.07.2025 13:59
#CORR. FILE:005923_bline_Al2O3_900_20_N2_20_air_20.ngb-bs1
#TEMPCAL:TCALZERO.TCX
#SENSITIVITY:SENSZERO.EXX
#LABORATORY:13
#REMARK:
#SAMPLE:3
#SAMPLE MASS /mg:11.02
#REFERENCE:
#REFERENCE MASS /mg:0
#TYPE OF CRUCIBLE:DSC/TG pan Al2O3
#SAMPLE CRUCIBLE MASS /mg:0
#REFERENCE CRUCIBLE MASS /mg:0
#DSC RANGE /�V:5000
#TG RANGE /mg:5000
#TAU-R:---
#CORR. CODE:020
#EXO:+1
#RANGE:35�C/00:00/35�C/20,0(K/min)/920�C/
#SEGMENT:S2/2
#SEG. 1:35�C/00:15/35�C
#SEG. 2:35�C/20,0(K/min)/920�C

##Temp./�C;Time/min;DSC/(uV/mg);Sensit./(uV/mW)
34.12771;15.2525;2.70197e-121;1.0
34.24319;15.5025;3.0029e-121;1.0
34.64471;15.7525;4.3344e-121;1.0
35.4829;16.0025;9.3179e-121;1.0
36.80038;16.2525;3.09628e-120;1.0
38.58895;16.5025;1.57405e-119;1.0
40.80919;16.7525;1.17683e-118;1.0
43.38457;17.0025;1.20256e-117;1.0
46.28457;17.2525;1.62751e-116;1.0
49.45557;17.5025;2.76919e-115;1.0
52.86838;17.7525;5.75001e-114;1.0
56.49052;18.0025;1.41066e-112;1.0
60.29871;18.2525;3.9928e-111;1.0
64.26776;18.5025;1.27154e-109;1.0
68.38686;18.7525;4.50066e-108;1.0
72.62505;19.0025;1.71942e-106;1.0
76.97686;19.2525;7.04105e-105;1.0
81.44562;19.5025;3.09234e-103;1.0
86.04281;19.7525;1.46714e-101;1.0
90.75519;20.0025;7.41755e-100;1.0
95.54043;20.2525;3.85018e-98;1.0
100.409;20.5025;2.06528e-96;1.0
105.338;20.7525;1.12277e-94;1.0
110.304;21.0025;6.06161e-93;1.0
115.315;21.2525;3.2662e-91;1.0
120.365;21.5025;1.74699e-89;1.0
125.466;21.7525;9.35512e-88;1.0
130.616;22.0025;5.00197e-86;1.0
135.815;22.2525;2.66757e-84;1.0
141.059;22.5025;1.41174e-82;1.0
146.342;22.7525;7.38216e-81;1.0
151.657;23.0025;3.78792e-79;1.0
156.988;23.2525;1.88502e-77;1.0
162.33;23.5025;9.05465e-76;1.0
167.6811;23.7525;4.19511e-74;1.0
173.024;24.0025;1.85028e-72;1.0
178.4181;24.2525;8.09734e-71;1.0
183.813;24.5025;3.39408e-69;1.0
189.235;24.7525;1.38637e-67;1.0
194.669;25.0025;5.46057e-66;1.0
200.1089;25.2525;2.06584e-64;1.0
205.551;25.5025;7.48498e-63;1.0
210.995;25.7525;2.59437e-61;1.0
216.435;26.0025;8.5819e-60;1.0
221.884;26.2525;2.73077e-58;1.0
227.326;26.5025;8.26948e-57;1.0
232.769;26.7525;2.39511e-55;1.0
238.208;27.0025;6.61966e-54;1.0
243.645;27.2525;1.74838e-52;1.0
249.081;27.5025;4.41117e-51;1.0
254.513;27.7525;1.06187e-49;1.0
259.938;28.0025;2.43452e-48;1.0
265.359;28.2525;5.3269e-47;1.0
270.777;28.5025;1.11338e-45;1.0
276.19;28.7525;2.21985e-44;1.0
281.589;29.0025;4.20274e-43;1.0
286.9809;29.2525;7.58332e-42;1.0
292.374;29.5025;1.3106e-40;1.0
297.754;29.7525;2.1526e-39;1.0
303.122;30.0025;3.36399e-38;1.0
308.487;30.2525;5.0255e-37;1.0
313.8459;30.5025;7.16844e-36;1.0
319.199;30.7525;9.76077e-35;1.0
324.539;31.0025;1.26506e-33;1.0
329.881;31.2525;1.57165e-32;1.0
335.21;31.5025;1.85893e-31;1.0
340.529;31.7525;2.09742e-30;1.0
345.84;32.0025;2.25905e-29;1.0
351.143;32.2525;2.32346e-28;1.0
356.438;32.5025;2.28332e-27;1.0
361.728;32.7525;2.14562e-26;1.0
367.0099;33.0025;1.9261e-25;1.0
372.279;33.2525;1.64903e-24;1.0
377.548;33.5025;1.35411e-23;1.0
382.81;33.7525;1.06336e-22;1.0
388.065;34.0025;7.98723e-22;1.0
393.315;34.2525;5.74345e-21;1.0
398.549;34.5025;3.93772e-20;1.0
403.789;34.7525;2.59609e-19;1.0
409.015;35.0025;1.63377e-18;1.0
414.236;35.2525;9.85114e-18;1.0
419.451;35.5025;5.68981e-17;1.0
424.66;35.7525;3.14697e-16;1.0
429.864;36.0025;1.66787e-15;1.0
435.062;36.2525;8.47293e-15;1.0
440.256;36.5025;4.12576e-14;1.0
445.444;36.7525;1.92573e-13;1.0
450.626;37.0025;8.61379e-13;1.0
455.799;37.2525;3.69138e-12;1.0
460.966;37.5025;1.51657e-11;1.0
466.133;37.7525;5.98306e-11;1.0
471.29;38.0025;2.26195e-10;1.0
476.442;38.2525;8.20533e-10;1.0
481.587;38.5025;2.85422e-09;1.0
486.731;38.7525;9.53631e-09;1.0
491.871;39.0025;3.05865e-08;1.0
497.004;39.2525;9.41391e-08;1.0
502.138;39.5025;2.7845e-07;1.0
507.262;39.7525;7.89875e-07;1.0
512.391;40.0025;2.15555e-06;1.0
517.514;40.2525;5.64754e-06;1.0
522.643;40.5025;1.42358e-05;1.0
527.765;40.7525;3.44445e-05;1.0
532.896;41.0025;8.02194e-05;1.0
538.037;41.2525;0.000179805;1.0
543.189;41.5025;0.00038788;1.0
548.349;41.7525;0.00080468;1.0
553.515;42.0025;0.00160482;1.0
558.684;42.2525;0.00307543;1.0
563.854;42.5025;0.00566094;1.0
569.049;42.7525;0.0100338;1.0
574.26;43.0025;0.0171011;1.0
579.422;43.2525;0.0278497;1.0
584.76;43.5025;0.0442079;1.0
590.127;43.7525;0.0673541;1.0
595.457;44.0025;0.0980129;1.0
600.648;44.2525;0.135531;1.0
605.784;44.5025;0.179431;1.0
610.83;44.7525;0.227387;1.0
615.742;45.0025;0.275967;1.0
620.639;45.2525;0.322791;1.0
625.545;45.5025;0.364201;1.0
630.459;45.7525;0.396282;1.0
635.38;46.0025;0.415761;1.0
640.308;46.2525;0.42052;1.0
645.26;46.5025;0.409919;1.0
650.236;46.7525;0.384904;1.0
655.221;47.0025;0.348068;1.0
660.22;47.2525;0.303025;1.0
665.225;47.5025;0.253972;1.0
670.231;47.7525;0.204945;1.0
675.241;48.0025;0.159205;1.0
680.257;48.2525;0.119024;1.0
685.271;48.5025;0.0856745;1.0
690.28;48.7525;0.0593982;1.0
695.2828;49.0025;0.0396665;1.0
700.282;49.2525;0.0255151;1.0
705.281;49.5025;0.0158045;1.0
710.284;49.7525;0.00942322;1.0
715.28;50.0025;0.0054145;1.0
720.278;50.2525;0.00299483;1.0
725.282;50.5025;0.00159409;1.0
730.282;50.7525;0.000817429;1.0
735.28;51.0025;0.000403735;1.0
740.272;51.2525;0.000192172;1.0
745.26;51.5025;8.81595e-05;1.0
750.243;51.7525;3.8982e-05;1.0
755.23;52.0025;1.65916e-05;1.0
760.233;52.2525;6.78122e-06;1.0
765.25;52.5025;2.66164e-06;1.0
770.278;52.7525;1.00356e-06;1.0
775.306;53.0025;3.64174e-07;1.0
780.335;53.2525;1.2718e-07;1.0
785.353;53.5025;4.28587e-08;1.0
790.365;53.7525;1.39191e-08;1.0
795.363;54.0025;4.3678e-09;1.0
800.355;54.2525;1.32137e-09;1.0
805.337;54.5025;3.86033e-10;1.0
810.311;54.7525;1.08852e-10;1.0
815.273;55.0025;2.96569e-11;1.0
820.233;55.2525;7.78968e-12;1.0
825.19;55.5025;1.97295e-12;1.0
830.147;55.7525;4.81522e-13;1.0
835.104;56.0025;1.13258e-13;1.0
840.066;56.2525;2.56267e-14;1.0
845.0319;56.5025;5.57887e-15;1.0
849.994;56.7525;1.17166e-15;1.0
854.957;57.0025;2.37023e-16;1.0
859.918;57.2525;4.62179e-17;1.0
864.877;57.5025;8.69145e-18;1.0
869.837;57.7525;1.57422e-18;1.0
874.792;58.0025;2.75216e-19;1.0
879.749;58.2525;4.63274e-20;1.0
884.703;58.5025;7.52243e-21;1.0
889.657;58.7525;1.1768e-21;1.0
894.614;59.0025;1.7723e-22;1.0