File: src/data/kinetics/multipeaks/q20/peak_2.txt
#EXPORTTYPE:DATA SINGLE
#FTYPE:ANSI
#IDENTITY:005924
#DECIMAL:POINT
#SEPARATOR:SEMICOLON
#MTYPE:DSC
#PROJECT:
#DATE/TIME:22.07.2025 13:59
#CORR. FILE:005923_bline_Al2O3_900_20_N2_20_air_20.ngb-bs1
#TEMPCAL:TCALZERO.TCX
#SENSITIVITY:SENSZERO.EXX
#LABORATORY:13
#REMARK:
#SAMPLE:3
#SAMPLE MASS /mg:11.02
#REFERENCE:
#REFERENCE MASS /mg:0
#TYPE OF CRUCIBLE:DSC/TG pan Al2O3
#SAMPLE CRUCIBLE MASS /mg:0
#REFERENCE CRUCIBLE MASS /mg:0
#DSC RANGE /�V:5000
#TG RANGE /mg:5000
#TAU-R:---
#CORR. CODE:020
#EXO:+1
#RANGE:35�C/00:00/35�C/20,0(K/min)/920�C/
#SEGMENT:S2/2
#SEG. 1:35�C/00:15/35�C
#SEG. 2:35�C/20,0(K/min)/920�C

##Temp./�C;Time/min;DSC/(uV/mg);Sensit./(uV/mW)
34.12771;15.2525;4.13261e-208;1.0
34.24319;15.5025;4.8277e-208;1.0
34.64471;15.7525;8.28713e-208;1.0
35.4829;16.0025;2.55768e-207;1.0
36.80038;16.2525;1.49963e-206;1.0
38.58895;16.5025;1.64625e-205;1.0
40.80919;16.7525;3.19492e-204;1.0
43.38457;17.0025;9.8479e-203;1.0
46.28457;17.2525;4.60622e-201;1.0
49.45557;17.5025;3.03012e-199;1.0
52.86838;17.7525;2.68501e-197;1.0
56.49052;18.0025;3.05751e-195;1.0
60.29871;18.2525;4.32256e-193;1.0
64.26776;18.5025;7.31489e-191;1.0
68.38686;18.7525;1.45604e-188;1.0
72.62505;19.0025;3.26579e-186;1.0
76.97686;19.2525;8.17333e-184;1.0
81.44562;19.5025;2.28559e-181;1.0
86.04281;19.7525;7.22288e-179;1.0
90.75519;20.0025;2.52903e-176;1.0
95.54043;20.2525;9.28492e-174;1.0
100.409;20.5025;3.61091e-171;1.0
105.338;20.7525;1.4453e-168;1.0
110.304;21.0025;5.77667e-166;1.0
115.315;21.2525;2.32347e-163;1.0
120.365;21.5025;9.32998e-161;1.0
125.466;21.7525;3.78986e-158;1.0
130.616;22.0025;1.55135e-155;1.0
135.815;22.2525;6.39129e-153;1.0
141.059;22.5025;2.63041e-150;1.0
146.342;22.7525;1.07469e-147;1.0
151.657;23.0025;4.31422e-145;1.0
156.988;23.2525;1.67185e-142;1.0
162.33;23.5025;6.2097e-140;1.0
167.6811;23.7525;2.20828e-137;1.0
173.024;24.0025;7.36938e-135;1.0
178.4181;24.2525;2.45958e-132;1.0
183.813;24.5025;7.77762e-130;1.0
189.235;24.7525;2.39325e-127;1.0
194.669;25.0025;7.05141e-125;1.0
200.1089;25.2525;1.97747e-122;1.0
205.551;25.5025;5.25454e-120;1.0
210.995;25.7525;1.32069e-117;1.0
216.435;26.0025;3.12817e-115;1.0
221.884;26.2525;7.06941e-113;1.0
227.326;26.5025;1.49895e-110;1.0
232.769;26.7525;3.00531e-108;1.0
238.208;27.0025;5.677e-106;1.0
243.645;27.2525;1.01265e-103;1.0
249.081;27.5025;1.70466e-101;1.0
254.513;27.7525;2.7028e-99;1.0
259.938;28.0025;4.02474e-97;1.0
265.359;28.2525;5.64696e-95;1.0
270.777;28.5025;7.47579e-93;1.0
276.19;28.7525;9.31734e-91;1.0
281.589;29.0025;1.08515e-88;1.0
286.9809;29.2525;1.18788e-86;1.0
292.374;29.5025;1.23212e-84;1.0
297.754;29.7525;1.19554e-82;1.0
303.122;30.0025;1.08717e-80;1.0
308.487;30.2525;9.33603e-79;1.0
313.8459;30.5025;7.55608e-77;1.0
319.199;30.7525;5.76102e-75;1.0
324.539;31.0025;4.11779e-73;1.0
329.881;31.2525;2.79154e-71;1.0
335.21;31.5025;1.77448e-69;1.0
340.529;31.7525;1.06103e-67;1.0
345.84;32.0025;5.97433e-66;1.0
351.143;32.2525;3.16937e-64;1.0
356.438;32.5025;1.58551e-62;1.0
361.728;32.7525;7.48901e-61;1.0
367.0099;33.0025;3.33414e-59;1.0
372.279;33.2525;1.39497e-57;1.0
377.548;33.5025;5.53845e-56;1.0
382.81;33.7525;2.07596e-54;1.0
388.065;34.0025;7.34811e-53;1.0
393.315;34.2525;2.45969e-51;1.0
398.549;34.5025;7.72913e-50;1.0
403.789;34.7525;2.31496e-48;1.0
409.015;35.0025;6.52097e-47;1.0
414.236;35.2525;1.73916e-45;1.0
419.451;35.5025;4.3893e-44;1.0
424.66;35.7525;1.04762e-42;1.0
429.864;36.0025;2.36735e-41;1.0
435.062;36.2525;5.06733e-40;1.0
440.256;36.5025;1.02735e-38;1.0
445.444;36.7525;1.97283e-37;1.0
450.626;37.0025;3.58617e-36;1.0
455.799;37.2525;6.16705e-35;1.0
460.966;37.5025;1.00445e-33;1.0
466.133;37.7525;1.55437e-32;1.0
471.29;38.0025;2.2759e-31;1.0
476.442;38.2525;3.16069e-30;1.0
481.587;38.5025;4.15754e-29;1.0
486.731;38.7525;5.19725e-28;1.0
491.871;39.0025;6.16676e-27;1.0
497.004;39.2525;6.93891e-26;1.0
502.138;39.5025;7.42749e-25;1.0
507.262;39.7525;7.52814e-24;1.0
512.391;40.0025;7.27469e-23;1.0
517.514;40.2525;6.67136e-22;1.0
522.643;40.5025;5.83458e-21;1.0
527.765;40.7525;4.8398e-20;1.0
532.896;41.0025;3.83329e-19;1.0
538.037;41.2525;2.89876e-18;1.0
543.189;41.5025;2.09364e-17;1.0
548.349;41.7525;1.44175e-16;1.0
553.515;42.0025;9.4594e-16;1.0
558.684;42.2525;5.90681e-15;1.0
563.854;42.5025;3.50676e-14;1.0
569.049;42.7525;1.99485e-13;1.0
574.26;43.0025;1.08365e-12;1.0
579.422;43.2525;5.50561e-12;1.0
584.76;43.5025;2.80439e-11;1.0
590.127;43.7525;1.36397e-10;1.0
595.457;44.0025;6.21703e-10;1.0
600.648;44.2525;2.58624e-09;1.0
605.784;44.5025;1.00759e-08;1.0
610.83;44.7525;3.65059e-08;1.0
615.742;45.0025;1.22021e-07;1.0
620.639;45.2525;3.8817e-07;1.0
625.545;45.5025;1.18242e-06;1.0
630.459;45.7525;3.44602e-06;1.0
635.38;46.0025;9.60725e-06;1.0
640.308;46.2525;2.56117e-05;1.0
645.26;46.5025;6.54973e-05;1.0
650.236;46.7525;0.000160512;1.0
655.221;47.0025;0.000375877;1.0
660.22;47.2525;0.000841432;1.0
665.225;47.5025;0.00179796;1.0
670.231;47.7525;0.00366365;1.0
675.241;48.0025;0.00712133;1.0
680.257;48.2525;0.0132078;1.0
685.271;48.5025;0.0233482;1.0
690.28;48.7525;0.0393238;1.0
695.2828;49.0025;0.063118;1.0
700.282;49.2525;0.0965744;1.0
705.281;49.5025;0.140907;1.0
710.284;49.7525;0.196096;1.0
715.28;50.0025;0.260127;1.0
720.278;50.2525;0.329127;1.0
725.282;50.5025;0.397182;1.0
730.282;50.7525;0.456998;1.0
735.28;51.0025;0.501413;1.0
740.272;51.2525;0.524627;1.0
745.26;51.5025;0.52353;1.0
750.243;51.7525;0.498343;1.0
755.23;52.0025;0.452461;1.0
760.233;52.2525;0.391627;1.0
765.25;52.5025;0.32303;1.0
770.278;52.7525;0.253859;1.0
775.306;53.0025;0.190136;1.0
780.335;53.2525;0.135721;1.0
785.353;53.5025;0.0924192;1.0
790.365;53.7525;0.0600189;1.0
795.363;54.0025;0.0372173;1.0
800.355;54.2525;0.0220198;1.0
805.337;54.5025;0.0124416;1.0
810.311;54.7525;0.00671282;1.0
815.273;55.0025;0.00346098;1.0
820.233;55.2525;0.00170337;1.0
825.19;55.5025;0.000800403;1.0
830.147;55.7525;0.000358958;1.0
835.104;56.0025;0.000153654;1.0
840.066;56.2525;6.27094e-05;1.0
845.0319;56.5025;2.44016e-05;1.0
849.994;56.7525;9.06823e-06;1.0
854.957;57.0025;3.2154e-06;1.0
859.918;57.2525;1.08829e-06;1.0
864.877;57.5025;3.51743e-07;1.0
869.837;57.7525;1.08465e-07;1.0
874.792;58.0025;3.19593e-08;1.0
879.749;58.2525;8.98263e-09;1.0
884.703;58.5025;2.41146e-09;1.0
889.657;58.7525;6.17801e-10;1.0
894.614;59.0025;1.50957e-10;1.0