File: src/data/kinetics/multipeaks/q10.txt
#EXPORTTYPE:DATA SINGLE
#FTYPE:ANSI
#IDENTITY:005922
#DECIMAL:POINT
#SEPARATOR:SEMICOLON
#MTYPE:DSC
#SAMPLE:2
#SAMPLE MASS /mg:7.28
#REFERENCE MASS /mg:0
#TYPE OF CRUCIBLE:DSC/TG pan Al2O3
#SAMPLE CRUCIBLE MASS /mg:0
#REFERENCE CRUCIBLE MASS /mg:0
#DSC RANGE /�V:5000
#TG RANGE /mg:5000
#TAU-R:---
#CORR. CODE:020
#EXO:+1
#RANGE:35�C/00:00/35�C/10,0(K/min)/920�C/
#SEGMENT:S1-2/2
#SEG. 1:35�C/00:15/35�C
#SEG. 2:35�C/10,0(K/min)/920�C

##Temp./�C;Time/min;DSC/(uV/mg);Sensit./(uV/mW);Segment
 33.97600;  0.00000; 3.9824e-003;1.00000;1
 34.00776;  0.50000; 3.2488e-003;1.00000;1
 34.05276;  1.00000; 3.3536e-003;1.00000;1
 34.08182;  1.50000; 2.7248e-003;1.00000;1
 34.10847;  2.00000; 2.9344e-003;1.00000;1
 34.13618;  2.50000; 3.1440e-003;1.00000;1
 34.15324;  3.00000; 2.9344e-003;1.00000;1
 34.16100;  3.50000; 1.3624e-003;1.00000;1
 34.16953;  4.00000; 2.4104e-003;1.00000;1
 34.18312;  4.50000; 2.2008e-003;1.00000;1
 34.18865;  5.00000; 1.5720e-003;1.00000;1
 34.19294;  5.50000; 2.7248e-003;1.00000;1
 34.19524;  6.00000; 2.3056e-003;1.00000;1
 34.20065;  6.50000; 2.3056e-003;1.00000;1
 34.20253;  7.00000; 1.8864e-003;1.00000;1
 34.20600;  7.50000; 1.6768e-003;1.00000;1
 34.20118;  8.00000; 1.8864e-003;1.00000;1
 34.20176;  8.50000; 2.7248e-003;1.00000;1
 34.20347;  9.00000; 2.4104e-003;1.00000;1
 34.20318;  9.50000; 2.2008e-003;1.00000;1
 34.20500; 10.00000; 1.0480e-003;1.00000;1
 34.20871; 10.50000; 1.6768e-003;1.00000;1
 34.20712; 11.00000; 1.6768e-003;1.00000;1
 34.20771; 11.50000; 1.2576e-003;1.00000;1
 34.20588; 12.00000; 6.2880e-004;1.00000;1
 34.20829; 12.50000; 5.2400e-004;1.00000;1
 34.20776; 13.00000; 6.2880e-004;1.00000;1
 34.21177; 13.50000; 1.0480e-004;1.00000;1
 34.21224; 14.00000; 1.7816e-003;1.00000;1
 34.20835; 14.50000; 1.1528e-003;1.00000;1
 34.22108; 15.00000; 9.0777e-004;1.00000;2
 34.25831; 15.50000; 1.7510e-003;1.00000;2
 34.84544; 16.00000;-1.9157e-003;1.00000;2
 36.30742; 16.50000;-1.0309e-002;1.00000;2
 38.55148; 17.00000;-1.9099e-002;1.00000;2
 41.38813; 17.50000;-2.6860e-002;1.00000;2
 44.65488; 18.00000;-3.3768e-002;1.00000;2
 48.26587; 18.50000;-3.9822e-002;1.00000;2
 52.17875; 19.00000;-4.4350e-002;1.00000;2
 56.32557; 19.50000;-5.3274e-002;1.00000;2
 60.66140; 20.00000;-5.3299e-002;1.00000;2
 65.16764; 20.50000;-5.4207e-002;1.00000;2
 69.79150; 21.00000;-5.9284e-002;1.00000;2
 74.51336; 21.50000;-5.9477e-002;1.00000;2
 79.31675; 22.00000;-5.6649e-002;1.00000;2
 84.20921; 22.50000;-4.9302e-002;1.00000;2
 89.17272; 23.00000;-5.1370e-002;1.00000;2
 94.20287; 23.50000;-5.3055e-002;1.00000;2
 99.28467; 24.00000;-5.4206e-002;1.00000;2
104.41; 24.50000;-5.1705e-002;1.00000;2
109.553; 25.00000;-5.2811e-002;1.00000;2
114.701; 25.50000;-5.1845e-002;1.00000;2
119.853; 26.00000;-5.1632e-002;1.00000;2
125.02; 26.50000;-6.5079e-002;1.00000;2
130.201; 27.00000;-4.9705e-002;1.00000;2
135.416; 27.50000;-6.3718e-002;1.00000;2
140.645; 28.00000;-6.2142e-002;1.00000;2
145.893; 28.50000;-6.5566e-002;1.00000;2
151.148; 29.00000;-6.1063e-002;1.00000;2
156.42; 29.50000;-5.5139e-002;1.00000;2
161.667; 30.00000;-5.8567e-002;1.00000;2
166.927; 30.50000;-5.6746e-002;1.00000;2
172.176; 31.00000;-5.0015e-002;1.00000;2
177.423; 31.50000;-4.7961e-002;1.00000;2
182.675; 32.00000;-4.4933e-002;1.00000;2
187.928; 32.50000;-5.1711e-002;1.00000;2
193.188; 33.00000;-4.3942e-002;1.00000;2
198.45; 33.50000;-3.2518e-002;1.00000;2
203.7; 34.00000;-2.5994e-002;1.00000;2
208.954; 34.50000;-3.0950e-002;1.00000;2
214.203; 35.00000;-2.3258e-002;1.00000;2
219.45; 35.50000;-1.8628e-002;1.00000;2
224.693; 36.00000;-1.6130e-002;1.00000;2
229.938; 36.50000;-9.8402e-003;1.00000;2
235.177; 37.00000;-9.5459e-003;1.00000;2
240.409; 37.50000;-5.8141e-003;1.00000;2
245.63; 38.00000;-2.5932e-003;1.00000;2
250.851; 38.50000; 1.0651e-003;1.00000;2
256.066; 39.00000; 5.4831e-003;1.00000;2
261.282; 39.50000; 7.1687e-003;1.00000;2
266.493; 40.00000; 1.3226e-002;1.00000;2
271.702; 40.50000; 1.5525e-002;1.00000;2
276.905; 41.00000; 2.0453e-002;1.00000;2
282.104; 41.50000; 2.5876e-002;1.00000;2
287.296; 42.00000; 2.8739e-002;1.00000;2
292.484; 42.50000; 3.2683e-002;1.00000;2
297.662; 43.00000; 3.6585e-002;1.00000;2
302.844; 43.50000; 4.1420e-002;1.00000;2
308.025; 44.00000; 4.4932e-002;1.00000;2
313.198; 44.50000; 4.8864e-002;1.00000;2
318.367; 45.00000; 5.2416e-002;1.00000;2
323.53; 45.50000; 5.6164e-002;1.00000;2
328.684; 46.00000; 6.0785e-002;1.00000;2
333.832; 46.50000; 6.3200e-002;1.00000;2
338.979; 47.00000; 6.8826e-002;1.00000;2
344.124; 47.50000; 7.4351e-002;1.00000;2
349.266; 48.00000; 7.8084e-002;1.00000;2
354.404; 48.50000; 8.2861e-002;1.00000;2
359.53; 49.00000; 8.6250e-002;1.00000;2
364.655; 49.50000; 9.0944e-002;1.00000;2
369.777; 50.00000; 9.6012e-002;1.00000;2
374.894; 50.50000;     0.10229;1.00000;2
380.012; 51.00000;     0.10704;1.00000;2
385.131; 51.50000;     0.11387;1.00000;2
390.241; 52.00000;     0.11884;1.00000;2
395.351; 52.50000;     0.12382;1.00000;2
400.449; 53.00000;     0.12980;1.00000;2
405.55; 53.50000;     0.13592;1.00000;2
410.638; 54.00000;     0.14190;1.00000;2
415.732; 54.50000;     0.14725;1.00000;2
420.819; 55.00000;     0.15442;1.00000;2
425.911; 55.50000;     0.16042;1.00000;2
430.995; 56.00000;     0.16628;1.00000;2
436.074; 56.50000;     0.17462;1.00000;2
441.145; 57.00000;     0.17993;1.00000;2
446.217; 57.50000;     0.18700;1.00000;2
451.286; 58.00000;     0.19344;1.00000;2
456.353; 58.50000;     0.20025;1.00000;2
461.418; 59.00000;     0.20797;1.00000;2
466.477; 59.50000;     0.21565;1.00000;2
471.529; 60.00000;     0.22365;1.00000;2
476.582; 60.50000;     0.23068;1.00000;2
481.636; 61.00000;     0.23706;1.00000;2
486.683; 61.50000;     0.24474;1.00000;2
491.728; 62.00000;     0.25154;1.00000;2
496.768; 62.50000;     0.27908;1.00000;2
501.821; 63.00000;     0.35412;1.00000;2
506.882; 63.50000;     0.44248;1.00000;2
511.946; 64.00000;     0.53362;1.00000;2
517.02; 64.50000;     0.64848;1.00000;2
522.098; 65.00000;     0.76641;1.00000;2
527.178; 65.50000;     0.88420;1.00000;2
532.264; 66.00000;     0.98946;1.00000;2
537.468; 66.50000;     1.01910;1.00000;2
543.182; 67.00000;     0.97763;1.00000;2
548.501; 67.50000;     1.14078;1.00000;2
553.563; 68.00000;     1.30805;1.00000;2
558.516; 68.50000;     1.45408;1.00000;2
563.435; 69.00000;     1.57136;1.00000;2
568.34; 69.50000;     1.63525;1.00000;2
573.249; 70.00000;     1.67431;1.00000;2
578.162; 70.50000;     1.69525;1.00000;2
583.077; 71.00000;     1.71106;1.00000;2
588.002; 71.50000;     1.74614;1.00000;2
592.939; 72.00000;     1.74550;1.00000;2
597.889; 72.50000;     1.75313;1.00000;2
602.842; 73.00000;     1.76506;1.00000;2
607.795; 73.50000;     1.78062;1.00000;2
612.752; 74.00000;     1.79798;1.00000;2
617.716; 74.50000;     1.82266;1.00000;2
622.685; 75.00000;     1.84991;1.00000;2
627.656; 75.50000;     1.87749;1.00000;2
632.631; 76.00000;     1.90221;1.00000;2
637.608; 76.50000;     1.92159;1.00000;2
642.586; 77.00000;     1.93715;1.00000;2
647.562; 77.50000;     1.94708;1.00000;2
652.538; 78.00000;     1.94805;1.00000;2
657.509; 78.50000;     1.94906;1.00000;2
662.477; 79.00000;     1.94917;1.00000;2
667.435; 79.50000;     1.94832;1.00000;2
672.393; 80.00000;     1.94615;1.00000;2
677.351; 80.50000;     1.93828;1.00000;2
682.307; 81.00000;     1.92867;1.00000;2
687.259; 81.50000;     1.91015;1.00000;2
692.207; 82.00000;     1.89138;1.00000;2
697.15; 82.50000;     1.86979;1.00000;2
702.093; 83.00000;     1.84578;1.00000;2
707.031; 83.50000;     1.81473;1.00000;2
711.974; 84.00000;     1.77488;1.00000;2
716.905; 84.50000;     1.71063;1.00000;2
721.823; 85.00000;     1.61335;1.00000;2
726.768; 85.50000;     1.47404;1.00000;2
731.732; 86.00000;     1.27557;1.00000;2
736.677; 86.50000;     1.03756;1.00000;2
741.597; 87.00000;     0.78340;1.00000;2
746.505; 87.50000;     0.53419;1.00000;2
751.4; 88.00000;     0.31744;1.00000;2
756.305; 88.50000;     0.16156;1.00000;2
761.228; 89.00000; 8.1098e-002;1.00000;2
766.169; 89.50000; 4.8147e-002;1.00000;2
771.13; 90.00000; 3.6720e-002;1.00000;2
776.092; 90.50000; 3.2237e-002;1.00000;2
781.059; 91.00000; 2.8201e-002;1.00000;2
786.022; 91.50000; 2.4461e-002;1.00000;2
790.986; 92.00000; 1.9986e-002;1.00000;2
795.94; 92.50000; 1.9127e-002;1.00000;2
800.887; 93.00000; 1.8606e-002;1.00000;2
805.838; 93.50000; 1.4235e-002;1.00000;2
810.787; 94.00000; 1.1496e-002;1.00000;2
815.733; 94.50000; 6.5157e-003;1.00000;2
820.689; 95.00000; 1.7550e-003;1.00000;2
825.643; 95.50000; 3.6615e-004;1.00000;2
830.599; 96.00000;-8.1988e-004;1.00000;2
835.559; 96.50000;-1.1025e-003;1.00000;2
840.512; 97.00000;-3.1437e-003;1.00000;2
845.458; 97.50000;-3.4349e-003;1.00000;2
850.411; 98.00000;-6.5668e-003;1.00000;2
855.36; 98.50000;-9.6310e-003;1.00000;2
860.305; 99.00000;-1.1345e-002;1.00000;2
865.247; 99.50000;-1.0747e-002;1.00000;2
870.193;100;-1.2812e-002;1.00000;2
875.142;100.5;-1.4167e-002;1.00000;2
880.098;101;-1.6684e-002;1.00000;2
885.052;101.5;-1.5954e-002;1.00000;2
890.004;102;-1.7303e-002;1.00000;2
894.956;102.5;-1.7920e-002;1.00000;2
899.902;103;-1.9245e-002;1.00000;2
902.373;103.25;-1.7815e-002;1.00000;2