File: src/data/kinetics/multipeaks/q5.txt
#EXPORTTYPE:DATA SINGLE
#FTYPE:ANSI
#IDENTITY:005920
#DECIMAL:POINT
#SEPARATOR:SEMICOLON
#MTYPE:DSC
#SENSITIVITY:SENSZERO.EXX
#SAMPLE:1
#SAMPLE MASS /mg:9.99
#MATERIAL:
#REFERENCE:
#REFERENCE MASS /mg:0
#TYPE OF CRUCIBLE:DSC/TG pan Al2O3
#SAMPLE CRUCIBLE MASS /mg:0
#REFERENCE CRUCIBLE MASS /mg:0
#DSC RANGE /V:5000
#TG RANGE /mg:5000
#TAU-R:---
#CORR. CODE:020
#EXO:+1
#RANGE:35C/00:00/35C/5,0(K/min)/920C/
#SEGMENT:S1-2/2
#SEG. 1:35C/00:15/35C
#SEG. 2:35C/5,0(K/min)/920C

##Temp./C;Time/min;DSC/(uV/mg);Sensit./(uV/mW);Segment
 34.17900;  0.00000;-1.4510e-003;1.00000;1
 34.17688;  1.00000;-1.3747e-003;1.00000;1
 34.16682;  2.00000;-6.8733e-004;1.00000;1
 34.16623;  3.00000;-1.4510e-003;1.00000;1
 34.16165;  4.00000;-1.6038e-003;1.00000;1
 34.16271;  5.00000;-2.0620e-003;1.00000;1
 34.15588;  6.00000;-6.1096e-004;1.00000;1
 34.15471;  7.00000;-2.1384e-003;1.00000;1
 34.15700;  8.00000;-1.6801e-003;1.00000;1
 34.15406;  9.00000;-1.6038e-003;1.00000;1
 34.15165; 10.00000;-1.4510e-003;1.00000;1
 34.14235; 11.00000;-1.6801e-003;1.00000;1
 34.12859; 12.00000;-1.2983e-003;1.00000;1
 34.12447; 13.00000;-2.1384e-003;1.00000;1
 34.11500; 14.00000;-1.5274e-003;1.00000;1
 34.11549; 15.00000;-1.8819e-003;1.00000;2
 34.42622; 16.00000;-4.6939e-003;1.00000;2
 36.19250; 17.00000;-1.4563e-002;1.00000;2
 39.09878; 18.00000;-2.2553e-002;1.00000;2
 42.69183; 19.00000;-2.8700e-002;1.00000;2
 46.74168; 20.00000;-3.3235e-002;1.00000;2
 51.10446; 21.00000;-3.9461e-002;1.00000;2
 55.68474; 22.00000;-4.2180e-002;1.00000;2
 60.43665; 23.00000;-4.8979e-002;1.00000;2
 65.30787; 24.00000;-3.9380e-002;1.00000;2
 70.24448; 25.00000;-3.9173e-002;1.00000;2
 75.22398; 26.00000;-4.1701e-002;1.00000;2
 80.21691; 27.00000;-4.3098e-002;1.00000;2
 85.24469; 28.00000;-4.1489e-002;1.00000;2
 90.30329; 29.00000;-3.4878e-002;1.00000;2
 95.38379; 30.00000;-3.7171e-002;1.00000;2
100.482; 31.00000;-4.0039e-002;1.00000;2
105.595; 32.00000;-3.7457e-002;1.00000;2
110.698; 33.00000;-3.4143e-002;1.00000;2
115.8; 34.00000;-3.7691e-002;1.00000;2
120.886; 35.00000;-3.6809e-002;1.00000;2
125.984; 36.00000;-3.6516e-002;1.00000;2
131.096; 37.00000;-3.6576e-002;1.00000;2
136.213; 38.00000;-3.5805e-002;1.00000;2
141.336; 39.00000;-3.2652e-002;1.00000;2
146.477; 40.00000;-3.6885e-002;1.00000;2
151.63; 41.00000;-3.6631e-002;1.00000;2
156.779; 42.00000;-3.6746e-002;1.00000;2
161.923; 43.00000;-3.5427e-002;1.00000;2
167.069; 44.00000;-3.5359e-002;1.00000;2
172.2; 45.00000;-2.9214e-002;1.00000;2
177.339; 46.00000;-2.6277e-002;1.00000;2
182.47; 47.00000;-3.6901e-002;1.00000;2
187.6; 48.00000;-2.5448e-002;1.00000;2
192.741; 49.00000;-2.6282e-002;1.00000;2
197.878; 50.00000;-2.9004e-002;1.00000;2
203.018; 51.00000;-3.0022e-002;1.00000;2
208.16; 52.00000;-2.6369e-002;1.00000;2
213.294; 53.00000;-2.6312e-002;1.00000;2
218.417; 54.00000;-2.3800e-002;1.00000;2
223.532; 55.00000;-2.3208e-002;1.00000;2
228.648; 56.00000;-2.1974e-002;1.00000;2
233.765; 57.00000;-2.0759e-002;1.00000;2
238.878; 58.00000;-1.9527e-002;1.00000;2
243.985; 59.00000;-1.7378e-002;1.00000;2
249.096; 60.00000;-1.5824e-002;1.00000;2
254.205; 61.00000;-1.3357e-002;1.00000;2
259.311; 62.00000;-1.2128e-002;1.00000;2
264.42; 63.00000;-1.0403e-002;1.00000;2
269.535; 64.00000;-8.1255e-003;1.00000;2
274.632; 65.00000;-7.1381e-003;1.00000;2
279.729; 66.00000;-5.1825e-003;1.00000;2
284.836; 67.00000;-2.2279e-003;1.00000;2
289.94; 68.00000;-1.2224e-003;1.00000;2
295.031; 69.00000;-4.1845e-004;1.00000;2
300.129; 70.00000; 1.8941e-003;1.00000;2
305.218; 71.00000; 3.9979e-003;1.00000;2
310.299; 72.00000; 4.1490e-003;1.00000;2
315.373; 73.00000; 6.7889e-003;1.00000;2
320.449; 74.00000; 8.4435e-003;1.00000;2
325.526; 75.00000; 1.0854e-002;1.00000;2
330.599; 76.00000; 1.3596e-002;1.00000;2
335.672; 77.00000; 1.5225e-002;1.00000;2
340.734; 78.00000; 1.7366e-002;1.00000;2
345.801; 79.00000; 1.9706e-002;1.00000;2
350.862; 80.00000; 2.3072e-002;1.00000;2
355.923; 81.00000; 2.6209e-002;1.00000;2
360.985; 82.00000; 2.9429e-002;1.00000;2
366.039; 83.00000; 3.2743e-002;1.00000;2
371.086; 84.00000; 3.6114e-002;1.00000;2
376.134; 85.00000; 3.8910e-002;1.00000;2
381.179; 86.00000; 4.2748e-002;1.00000;2
386.218; 87.00000; 4.7498e-002;1.00000;2
391.254; 88.00000; 5.1616e-002;1.00000;2
396.297; 89.00000; 5.5629e-002;1.00000;2
401.34; 90.00000; 6.0287e-002;1.00000;2
406.379; 91.00000; 6.3942e-002;1.00000;2
411.418; 92.00000; 6.9161e-002;1.00000;2
416.45; 93.00000; 7.3042e-002;1.00000;2
421.478; 94.00000; 7.7454e-002;1.00000;2
426.506; 95.00000; 8.1513e-002;1.00000;2
431.534; 96.00000; 8.7233e-002;1.00000;2
436.573; 97.00000; 9.3413e-002;1.00000;2
441.604; 98.00000; 9.7099e-002;1.00000;2
446.638; 99.00000;     0.10287;1.00000;2
451.676;100;     0.10776;1.00000;2
456.696;101;     0.11286;1.00000;2
461.713;102;     0.11903;1.00000;2
466.727;103;     0.12418;1.00000;2
471.739;104;     0.12903;1.00000;2
476.747;105;     0.13310;1.00000;2
481.753;106;     0.13832;1.00000;2
486.76;107;     0.14303;1.00000;2
491.772;108;     0.14745;1.00000;2
496.782;109;     0.15178;1.00000;2
501.796;110;     0.15741;1.00000;2
506.804;111;     0.16361;1.00000;2
511.798;112;     0.17396;1.00000;2
516.891;113;     0.63386;1.00000;2
522.021;114;     0.80831;1.00000;2
527.437;115;     0.73988;1.00000;2
533;116;     1.06824;1.00000;2
537.996;117;     1.18442;1.00000;2
542.871;118;     1.24167;1.00000;2
547.731;119;     1.27011;1.00000;2
552.601;120;     1.27566;1.00000;2
557.497;121;     1.27322;1.00000;2
562.398;122;     1.26847;1.00000;2
567.305;123;     1.26035;1.00000;2
572.223;124;     1.25332;1.00000;2
577.149;125;     1.25341;1.00000;2
582.107;126;     1.26017;1.00000;2
587.052;127;     1.29128;1.00000;2
591.998;128;     1.29643;1.00000;2
596.964;129;     1.31019;1.00000;2
601.936;130;     1.32937;1.00000;2
606.909;131;     1.34761;1.00000;2
611.878;132;     1.36310;1.00000;2
616.848;133;     1.37589;1.00000;2
621.815;134;     1.38668;1.00000;2
626.776;135;     1.38872;1.00000;2
631.726;136;     1.38494;1.00000;2
636.667;137;     1.37900;1.00000;2
641.611;138;     1.36339;1.00000;2
646.558;139;     1.33775;1.00000;2
651.493;140;     1.30678;1.00000;2
656.417;141;     1.26260;1.00000;2
661.33;142;     1.20982;1.00000;2
666.247;143;     1.14492;1.00000;2
671.154;144;     1.05493;1.00000;2
676.039;145;     0.93029;1.00000;2
680.915;146;     0.76412;1.00000;2
685.775;147;     0.53755;1.00000;2
690.618;148;     0.28546;1.00000;2
695.473;149;     0.10143;1.00000;2
700.371;150; 3.0215e-002;1.00000;2
705.291;151; 1.3505e-002;1.00000;2
710.236;152; 1.0056e-002;1.00000;2
715.181;153; 8.5182e-003;1.00000;2
720.121;154; 8.2383e-003;1.00000;2
725.061;155; 6.5420e-003;1.00000;2
730.006;156; 7.4833e-003;1.00000;2
734.95;157; 7.5469e-003;1.00000;2
739.898;158; 4.9858e-003;1.00000;2
744.842;159; 6.4813e-003;1.00000;2
749.774;160; 5.1909e-003;1.00000;2
754.709;161; 1.1120e-003;1.00000;2
759.647;162; 2.6988e-003;1.00000;2
764.587;163; 2.1621e-003;1.00000;2
769.532;164; 1.0848e-003;1.00000;2
774.484;165;-1.6543e-003;1.00000;2
779.436;166;-2.3571e-003;1.00000;2
784.375;167;-3.3344e-003;1.00000;2
789.312;168;-4.9795e-003;1.00000;2
794.255;169;-4.8088e-003;1.00000;2
799.2;170;-6.4735e-003;1.00000;2
804.141;171;-7.5035e-003;1.00000;2
809.08;172;-1.2124e-002;1.00000;2
814.012;173;-1.6873e-002;1.00000;2
818.944;174;-1.8621e-002;1.00000;2
823.877;175;-2.0324e-002;1.00000;2
828.815;176;-1.8723e-002;1.00000;2
833.752;177;-1.7461e-002;1.00000;2
838.691;178;-1.9479e-002;1.00000;2
843.63;179;-2.1952e-002;1.00000;2
848.569;180;-2.3428e-002;1.00000;2
853.5;181;-2.7284e-002;1.00000;2
858.438;182;-3.1619e-002;1.00000;2
863.372;183;-3.2291e-002;1.00000;2
868.312;184;-3.2689e-002;1.00000;2
873.252;185;-3.4691e-002;1.00000;2
878.188;186;-3.5875e-002;1.00000;2
883.121;187;-3.7657e-002;1.00000;2
888.055;188;-3.7454e-002;1.00000;2
892.986;189;-3.7561e-002;1.00000;2
897.912;190;-3.7845e-002;1.00000;2
902.845;191;-3.7481e-002;1.00000;2
906.55;191.75;-3.9743e-002;1.00000;2